Wavelength (nm)	"98, M 1992_1213, 8"
200.00	
201.00	
202.00	
203.00	
204.00	
205.00	
206.00	
207.00	
208.00	
209.00	
210.00	
211.00	
212.00	
213.00	
214.00	
215.00	
216.00	
217.00	
218.00	
219.00	
220.00	
221.00	
222.00	
223.00	
224.00	
225.00	
226.00	
227.00	
228.00	
229.00	
230.00	
231.00	
232.00	
233.00	
234.00	
235.00	
236.00	
237.00	
238.00	
239.00	
240.00	
241.00	
242.00	
243.00	
244.00	
245.00	
246.00	
247.00	
248.00	
249.00	
250.00	
251.00	
252.00	
253.00	
254.00	
255.00	
256.00	
257.00	
258.00	
259.00	
260.00	
261.00	
262.00	
263.00	
264.00	
265.00	
266.00	
267.00	
268.00	
269.00	
270.00	
271.00	
272.00	
273.00	
274.00	
275.00	
276.00	
277.00	
278.00	
279.00	
280.00	
281.00	
282.00	
283.00	
284.00	
285.00	
286.00	
287.00	
288.00	
289.00	
290.00	
291.00	
292.00	
293.00	
294.00	
295.00	
296.00	
297.00	
298.00	
299.00	
300.00	
301.00	
302.00	
303.00	
304.00	
305.00	
306.00	
307.00	
308.00	
309.00	
310.00	
311.00	
312.00	
313.00	
314.00	
315.00	
316.00	
317.00	
318.00	
319.00	
320.00	
321.00	
322.00	
323.00	
324.00	
325.00	
326.00	
327.00	
328.00	
329.00	
330.00	
331.00	
332.00	
333.00	
334.00	
335.00	
336.00	
337.00	
338.00	
339.00	
340.00	
341.00	
342.00	
343.00	
344.00	
345.00	
346.00	
347.00	
348.00	
349.00	
350.00	
351.00	
352.00	
353.00	
354.00	
355.00	0.46462
356.00	0.48084
357.00	0.49705
358.00	0.51327
359.00	0.52973
360.00	0.54636
361.00	0.56298
362.00	0.58005
363.00	0.59888
364.00	0.61772
365.00	0.63762
366.00	0.66309
367.00	0.68857
368.00	0.71751
369.00	0.74731
370.00	0.77533
371.00	0.80219
372.00	0.82349
373.00	0.83925
374.00	0.85248
375.00	0.86321
376.00	0.87393
377.00	0.88467
378.00	0.89605
379.00	0.90744
380.00	0.91882
381.00	0.92971
382.00	0.93996
383.00	0.95020
384.00	0.96044
385.00	0.97009
386.00	0.97939
387.00	0.98771
388.00	0.99371
389.00	0.99748
390.00	0.99874
391.00	1.0000
392.00	0.99772
393.00	0.99225
394.00	0.98344
395.00	0.96471
396.00	0.94350
397.00	0.91312
398.00	0.87369
399.00	0.83125
400.00	0.78881
401.00	0.74637
402.00	0.68440
403.00	0.61659
404.00	0.54878
405.00	0.48845
406.00	0.43089
407.00	0.39210
408.00	0.35689
409.00	0.32167
410.00	0.28848
411.00	0.26202
412.00	0.23556
413.00	0.21034
414.00	0.19003
415.00	0.16972
416.00	0.15362
417.00	0.14096
418.00	0.12830
419.00	0.11828
420.00	0.10940
421.00	0.10052
422.00	0.094120
423.00	0.088941
424.00	0.083762
425.00	0.078583
426.00	0.074098
427.00	0.069926
428.00	0.065754
429.00	0.061582
430.00	0.057837
431.00	0.054267
432.00	0.050697
433.00	0.047126
434.00	0.044292
435.00	0.042086
436.00	0.039879
437.00	0.037672
438.00	0.035466
439.00	0.033714
440.00	0.032253
441.00	0.030793
442.00	0.029332
443.00	0.027871
444.00	0.026410
445.00	0.025449
446.00	0.024673
447.00	0.023897
448.00	0.023121
449.00	0.022345
450.00	0.021569
451.00	0.020806
452.00	0.020169
453.00	0.019533
454.00	0.018897
455.00	0.018261
456.00	0.017624
457.00	0.016988
458.00	0.016352
459.00	0.015667
460.00	0.014976
461.00	0.014285
462.00	0.013594
463.00	0.012903
464.00	0.012212
465.00	0.011653
466.00	0.011471
467.00	0.011288
468.00	0.011105
469.00	0.010922
470.00	0.010739
471.00	0.010556
472.00	0.010393
473.00	0.010230
474.00	0.010067
475.00	0.0099035
476.00	0.0097404
477.00	0.0095773
478.00	0.0094142
479.00	0.0094109
480.00	0.0094109
481.00	0.0094109
482.00	0.0094109
483.00	0.0094109
484.00	0.0094109
485.00	0.0094109
486.00	0.0094109
487.00	0.0094109
488.00	0.0094109
489.00	0.0094109
490.00	0.0094109
491.00	0.0094109
492.00	0.0096526
493.00	0.010117
494.00	0.010582
495.00	0.011047
496.00	0.011512
497.00	0.011977
498.00	0.012442
499.00	0.012906
500.00	0.013371
501.00	0.013836
502.00	0.014301
503.00	0.014766
504.00	0.015231
505.00	0.015696
506.00	0.016161
507.00	0.016764
508.00	0.017415
509.00	0.018067
510.00	0.018718
511.00	0.019370
512.00	0.020021
513.00	0.020672
514.00	0.021324
515.00	0.021975
516.00	0.022624
517.00	0.023241
518.00	0.023857
519.00	0.024473
520.00	0.025090
521.00	0.025706
522.00	0.026322
523.00	0.026939
524.00	0.027555
525.00	0.028171
526.00	0.028896
527.00	0.029651
528.00	0.030406
529.00	0.031161
530.00	0.031916
531.00	0.032671
532.00	0.033426
533.00	0.034181
534.00	0.034936
535.00	0.035725
536.00	0.036530
537.00	0.037335
538.00	0.038140
539.00	0.038945
540.00	0.039750
541.00	0.040555
542.00	0.041360
543.00	0.042165
544.00	0.042970
545.00	0.043775
546.00	0.044535
547.00	0.045190
548.00	0.045845
549.00	0.046500
550.00	0.047154
551.00	0.047809
552.00	0.048464
553.00	0.049118
554.00	0.049773
555.00	0.050428
556.00	0.051082
557.00	0.051737
558.00	0.053059
559.00	0.054431
560.00	0.055803
561.00	0.057175
562.00	0.058547
563.00	0.059919
564.00	0.061428
565.00	0.063004
566.00	0.064580
567.00	0.066156
568.00	0.067732
569.00	0.069307
570.00	0.070883
571.00	0.072459
572.00	0.074035
573.00	0.075344
574.00	0.076638
575.00	0.077932
576.00	0.079227
577.00	0.080521
578.00	0.081816
579.00	0.083110
580.00	0.084404
581.00	0.085699
582.00	0.087336
583.00	0.089150
584.00	0.090963
585.00	0.092777
586.00	0.094590
587.00	0.096404
588.00	0.098208
589.00	0.099718
590.00	0.10123
591.00	0.10274
592.00	0.10425
593.00	0.10576
594.00	0.10727
595.00	0.10842
596.00	0.10930
597.00	0.11019
598.00	0.11108
599.00	0.11197
600.00	0.11286
601.00	0.11378
602.00	0.11493
603.00	0.11607
604.00	0.11722
605.00	0.11836
606.00	0.11951
607.00	0.12135
608.00	0.12358
609.00	0.12582
610.00	0.12805
611.00	0.13038
612.00	0.13295
613.00	0.13552
614.00	0.13810
615.00	0.14067
616.00	0.14326
617.00	0.14593
618.00	0.14860
619.00	0.15127
620.00	0.15394
621.00	0.15667
622.00	0.15957
623.00	0.16248
624.00	0.16539
625.00	0.16829
626.00	0.17115
627.00	0.17361
628.00	0.17607
629.00	0.17853
630.00	0.18099
631.00	0.18346
632.00	0.18537
633.00	0.18729
634.00	0.18920
635.00	0.19111
636.00	0.19302
637.00	0.19473
638.00	0.19598
639.00	0.19722
640.00	0.19847
641.00	0.19971
642.00	0.20096
643.00	0.20221
644.00	0.20335
645.00	0.20449
646.00	0.20562
647.00	0.20675
648.00	0.20788
649.00	0.20901
650.00	0.20986
651.00	0.21064
652.00	0.21141
653.00	0.21218
654.00	0.21296
655.00	0.21373
656.00	0.21451
657.00	0.21525
658.00	0.21596
659.00	0.21666
660.00	0.21737
661.00	0.21807
662.00	0.21878
663.00	0.21910
664.00	0.21927
665.00	0.21944
666.00	0.21961
667.00	0.21977
668.00	0.21994
669.00	0.22011
670.00	0.22096
671.00	0.22190
672.00	0.22284
673.00	0.22377
674.00	0.22471
675.00	0.22612
676.00	0.22828
677.00	0.23044
678.00	0.23260
679.00	0.23477
680.00	0.23697
681.00	0.23916
682.00	0.24136
683.00	0.24360
684.00	0.24596
685.00	0.24833
686.00	0.25069
687.00	0.25306
688.00	0.25539
689.00	0.25773
690.00	0.26006
691.00	0.26239
692.00	0.26399
693.00	0.26528
694.00	0.26657
695.00	0.26786
696.00	0.26866
697.00	0.26928
698.00	0.26989
699.00	0.27051
700.00	0.26996
701.00	0.26941
702.00	0.26886
703.00	0.26736
704.00	0.26576
705.00	0.26415
706.00	0.26125
707.00	0.25774
708.00	0.25364
709.00	0.24866
710.00	0.24367
711.00	0.23875
712.00	0.23410
713.00	0.22944
714.00	0.22479
715.00	0.22013
716.00	0.21506
717.00	0.20973
718.00	0.20441
719.00	0.19908
720.00	0.19379
721.00	0.18850
722.00	0.18322
723.00	0.17793
724.00	0.17265
725.00	0.16741
726.00	0.16227
727.00	0.15713
728.00	0.15198
729.00	0.14684
730.00	0.14181
731.00	0.13717
732.00	0.13253
733.00	0.12789
734.00	0.12326
735.00	0.11862
736.00	0.11440
737.00	0.11022
738.00	0.10603
739.00	0.10185
740.00	0.097674
741.00	0.094427
742.00	0.091200
743.00	0.087973
744.00	0.084745
745.00	0.081518
746.00	0.078345
747.00	0.075230
748.00	0.072115
749.00	0.069000
750.00	0.065885
751.00	0.062770
752.00	0.059794
753.00	0.057278
754.00	0.054763
755.00	0.052248
756.00	0.049733
757.00	0.047218
758.00	0.044703
759.00	0.042422
760.00	0.040490
761.00	0.038559
762.00	0.036628
763.00	0.034697
764.00	0.032766
765.00	0.030835
766.00	0.029035
767.00	0.027331
768.00	0.025626
769.00	0.023922
770.00	0.022217
771.00	0.020512
772.00	0.018808
773.00	0.017230
774.00	0.016196
775.00	0.015161
776.00	0.014126
777.00	0.013091
778.00	0.012056
779.00	0.011022
780.00	0.010177
781.00	0.0094867
782.00	0.0087969
783.00	0.0081070
784.00	0.0074172
785.00	0.0067273
786.00	0.0060375
787.00	0.0056037
788.00	0.0051953
789.00	0.0047869
790.00	0.0043785
791.00	0.0039701
792.00	0.0035617
793.00	0.0031532
794.00	0.0025699
795.00	0.0019672
796.00	0.0019672
797.00	0.0019672
798.00	0.0019672
799.00	0.0019672
800.00	0.0019672
801.00	
802.00	
803.00	
804.00	
805.00	
806.00	
807.00	
808.00	
809.00	
810.00	
811.00	
812.00	
813.00	
814.00	
815.00	
816.00	
817.00	
818.00	
819.00	
820.00	
821.00	
822.00	
823.00	
824.00	
825.00	
826.00	
827.00	
828.00	
829.00	
830.00	
831.00	
832.00	
833.00	
834.00	
835.00	
836.00	
837.00	
838.00	
839.00	
840.00	
841.00	
842.00	
843.00	
844.00	
845.00	
846.00	
847.00	
848.00	
849.00	
850.00	
851.00	
852.00	
853.00	
854.00	
855.00	
856.00	
857.00	
858.00	
859.00	
860.00	
861.00	
862.00	
863.00	
864.00	
865.00	
866.00	
867.00	
868.00	
869.00	
870.00	
871.00	
872.00	
873.00	
874.00	
875.00	
876.00	
877.00	
878.00	
879.00	
880.00	
881.00	
882.00	
883.00	
884.00	
885.00	
886.00	
887.00	
888.00	
889.00	
890.00	
891.00	
892.00	
893.00	
894.00	
895.00	
896.00	
897.00	
898.00	
899.00	
900.00	
901.00	
902.00	
903.00	
904.00	
905.00	
906.00	
907.00	
908.00	
909.00	
910.00	
911.00	
912.00	
913.00	
914.00	
915.00	
916.00	
917.00	
918.00	
919.00	
920.00	
921.00	
922.00	
923.00	
924.00	
925.00	
926.00	
927.00	
928.00	
929.00	
930.00	
931.00	
932.00	
933.00	
934.00	
935.00	
936.00	
937.00	
938.00	
939.00	
940.00	
941.00	
942.00	
943.00	
944.00	
945.00	
946.00	
947.00	
948.00	
949.00	
950.00	
951.00	
952.00	
953.00	
954.00	
955.00	
956.00	
957.00	
958.00	
959.00	
960.00	
961.00	
962.00	
963.00	
964.00	
965.00	
966.00	
967.00	
968.00	
969.00	
970.00	
971.00	
972.00	
973.00	
974.00	
975.00	
976.00	
977.00	
978.00	
979.00	
980.00	
981.00	
982.00	
983.00	
984.00	
985.00	
986.00	
987.00	
988.00	
989.00	
990.00	
991.00	
992.00	
993.00	
994.00	
995.00	
996.00	
997.00	
998.00	
999.00	
1000.0	
1001.0	
1002.0	
1003.0	
1004.0	
1005.0	
1006.0	
1007.0	
1008.0	
1009.0	
1010.0	
1011.0	
1012.0	
1013.0	
1014.0	
1015.0	
1016.0	
1017.0	
1018.0	
1019.0	
1020.0	
1021.0	
1022.0	
1023.0	
1024.0	
1025.0	
1026.0	
1027.0	
1028.0	
1029.0	
1030.0	
1031.0	
1032.0	
1033.0	
1034.0	
1035.0	
1036.0	
1037.0	
1038.0	
1039.0	
1040.0	
1041.0	
1042.0	
1043.0	
1044.0	
1045.0	
1046.0	
1047.0	
1048.0	
1049.0	
1050.0	
1051.0	
1052.0	
1053.0	
1054.0	
1055.0	
1056.0	
1057.0	
1058.0	
1059.0	
1060.0	
1061.0	
1062.0	
1063.0	
1064.0	
1065.0	
1066.0	
1067.0	
1068.0	
1069.0	
1070.0	
1071.0	
1072.0	
1073.0	
1074.0	
1075.0	
1076.0	
1077.0	
1078.0	
1079.0	
1080.0	
1081.0	
1082.0	
1083.0	
1084.0	
1085.0	
1086.0	
1087.0	
1088.0	
1089.0	
1090.0	
1091.0	
1092.0	
1093.0	
1094.0	
1095.0	
1096.0	
1097.0	
1098.0	
1099.0	
1100.0	
1101.0	
1102.0	
1103.0	
1104.0	
1105.0	
1106.0	
1107.0	
1108.0	
1109.0	
1110.0	
1111.0	
1112.0	
1113.0	
1114.0	
1115.0	
1116.0	
1117.0	
1118.0	
1119.0	
1120.0	
1121.0	
1122.0	
1123.0	
1124.0	
1125.0	
1126.0	
1127.0	
1128.0	
1129.0	
1130.0	
1131.0	
1132.0	
1133.0	
1134.0	
1135.0	
1136.0	
1137.0	
1138.0	
1139.0	
1140.0	
1141.0	
1142.0	
1143.0	
1144.0	
1145.0	
1146.0	
1147.0	
1148.0	
1149.0	
1150.0	
1151.0	
1152.0	
1153.0	
1154.0	
1155.0	
1156.0	
1157.0	
1158.0	
1159.0	
1160.0	
1161.0	
1162.0	
1163.0	
1164.0	
1165.0	
1166.0	
1167.0	
1168.0	
1169.0	
1170.0	
1171.0	
1172.0	
1173.0	
1174.0	
1175.0	
1176.0	
1177.0	
1178.0	
1179.0	
1180.0	
1181.0	
1182.0	
1183.0	
1184.0	
1185.0	
1186.0	
1187.0	
1188.0	
1189.0	
1190.0	
1191.0	
1192.0	
1193.0	
1194.0	
1195.0	
1196.0	
1197.0	
1198.0	
1199.0	
1200.0	
