Wavelength (nm)	P02 abs e
300.00	6673.4
300.20	6705.9
300.40	6731.8
300.60	6763.3
300.80	6784.0
301.00	6813.9
301.20	6839.5
301.40	6867.7
301.60	6890.4
301.80	6925.8
302.00	6933.1
302.20	6954.1
302.40	6971.8
302.60	7004.6
302.80	7027.9
303.00	7033.5
303.20	7056.8
303.40	7079.5
303.60	7089.0
303.80	7115.9
304.00	7132.3
304.20	7146.1
304.40	7171.4
304.60	7178.0
304.80	7188.1
305.00	7210.1
305.20	7220.3
305.40	7216.7
305.60	7257.4
305.80	7280.1
306.00	7275.1
306.20	7288.6
306.40	7311.2
306.60	7311.9
306.80	7318.8
307.00	7336.2
307.20	7341.8
307.40	7353.6
307.60	7350.0
307.80	7371.3
308.00	7366.4
308.20	7376.2
308.40	7391.7
308.60	7383.1
308.80	7389.7
309.00	7380.5
309.20	7386.4
309.40	7391.7
309.60	7381.5
309.80	7385.4
310.00	7378.5
310.20	7385.4
310.40	7391.3
310.60	7381.5
310.80	7369.7
311.00	7360.5
311.20	7352.3
311.40	7343.4
311.60	7333.9
311.80	7324.0
312.00	7308.6
312.20	7318.1
312.40	7306.0
312.60	7278.4
312.80	7262.0
313.00	7270.5
313.20	7230.5
313.40	7226.9
313.60	7212.8
313.80	7181.6
314.00	7182.9
314.20	7163.8
314.40	7128.1
314.60	7120.5
314.80	7110.7
315.00	7082.1
315.20	7067.0
315.40	7040.1
315.60	6996.7
315.80	6993.5
316.00	6977.7
316.20	6959.7
316.40	6920.6
316.60	6892.7
316.80	6868.1
317.00	6853.6
317.20	6820.5
317.40	6790.9
317.60	6776.5
317.80	6722.3
318.00	6711.8
318.20	6693.1
318.40	6660.6
318.60	6621.2
318.80	6594.3
319.00	6557.5
319.20	6534.2
319.40	6501.0
319.60	6463.9
319.80	6434.7
320.00	6415.0
320.20	6389.1
320.40	6339.8
320.60	6310.6
320.80	6286.3
321.00	6235.1
321.20	6207.9
321.40	6168.2
321.60	6139.6
321.80	6115.3
322.00	6069.3
322.20	6035.9
322.40	6004.7
322.60	5963.3
322.80	5914.1
323.00	5886.8
323.20	5854.3
323.40	5815.2
323.60	5782.1
323.80	5725.6
324.00	5697.4
324.20	5647.2
324.40	5616.0
324.60	5573.6
324.80	5531.6
325.00	5504.7
325.20	5451.8
325.40	5415.1
325.60	5370.4
325.80	5336.0
326.00	5288.4
326.20	5247.0
326.40	5211.9
326.60	5164.6
326.80	5120.6
327.00	5090.4
327.20	5043.1
327.40	5004.7
327.60	4952.2
327.80	4920.0
328.00	4880.3
328.20	4832.7
328.40	4784.4
328.60	4756.5
328.80	4704.7
329.00	4661.7
329.20	4625.9
329.40	4586.5
329.60	4547.4
329.80	4501.8
330.00	4456.8
330.20	4425.0
330.40	4364.2
330.60	4343.5
330.80	4303.5
331.00	4260.8
331.20	4213.9
331.40	4174.5
331.60	4144.3
331.80	4101.6
332.00	4055.6
332.20	4024.1
332.40	4000.2
332.60	3941.1
332.80	3906.9
333.00	3869.5
333.20	3835.0
333.40	3800.9
333.60	3771.3
333.80	3742.1
334.00	3702.7
334.20	3673.2
334.40	3646.6
334.60	3623.0
334.80	3572.7
335.00	3539.2
335.20	3513.0
335.40	3474.2
335.60	3446.3
335.80	3410.2
336.00	3394.1
336.20	3365.6
336.40	3340.3
336.60	3304.8
336.80	3268.4
337.00	3250.4
337.20	3237.2
337.40	3176.8
337.60	3165.7
337.80	3146.6
338.00	3141.7
338.20	3109.8
338.40	3076.4
338.60	3059.0
338.80	3038.0
339.00	3016.3
339.20	3008.1
339.40	2989.4
339.60	2965.1
339.80	2944.4
340.00	2938.5
340.20	2925.0
340.40	2891.2
340.60	2891.5
340.80	2861.7
341.00	2854.1
341.20	2847.9
341.40	2827.9
341.60	2821.6
341.80	2812.7
342.00	2790.8
342.20	2791.4
342.40	2778.6
342.60	2758.3
342.80	2756.6
343.00	2759.6
343.20	2743.5
343.40	2733.6
343.60	2723.5
343.80	2710.0
344.00	2713.9
344.20	2719.2
344.40	2705.4
344.60	2689.6
344.80	2690.3
345.00	2685.7
345.20	2676.5
345.40	2685.7
345.60	2689.6
345.80	2683.1
346.00	2690.0
346.20	2669.6
346.40	2671.6
346.60	2676.8
346.80	2658.1
347.00	2669.3
347.20	2674.9
347.40	2673.6
347.60	2672.9
347.80	2686.0
348.00	2680.8
348.20	2675.5
348.40	2697.2
348.60	2696.5
348.80	2688.0
349.00	2696.5
349.20	2693.9
349.40	2717.9
349.60	2703.8
349.80	2715.2
350.00	2766.8
350.20	2774.3
350.40	2770.4
350.60	2784.5
350.80	2785.2
351.00	2793.4
351.20	2796.0
351.40	2809.8
351.60	2799.9
351.80	2790.1
352.00	2797.0
352.20	2815.0
352.40	2805.9
352.60	2825.6
352.80	2844.3
353.00	2857.7
353.20	2845.3
353.40	2885.3
353.60	2895.1
353.80	2917.1
354.00	2920.8
354.20	2936.2
354.40	2970.7
354.60	2981.5
354.80	2970.3
355.00	3007.8
355.20	2986.4
355.40	3008.1
355.60	3026.5
355.80	3031.7
356.00	3045.5
356.20	3058.3
356.40	3040.3
356.60	3041.6
356.80	3054.4
357.00	3074.7
357.20	3080.6
357.40	3100.7
357.60	3117.7
357.80	3122.0
358.00	3144.3
358.20	3158.8
358.40	3187.3
358.60	3225.7
358.80	3240.8
359.00	3259.2
359.20	3267.8
359.40	3286.1
359.60	3311.1
359.80	3328.8
360.00	3343.3
360.20	3363.3
360.40	3382.7
360.60	3395.1
360.80	3407.9
361.00	3422.4
361.20	3425.3
361.40	3453.6
361.60	3472.9
361.80	3492.6
362.00	3503.5
362.20	3508.7
362.40	3536.0
362.60	3549.8
362.80	3532.4
363.00	3569.8
363.20	3586.2
363.40	3597.4
363.60	3627.9
363.80	3641.0
364.00	3665.6
364.20	3688.0
364.40	3706.0
364.60	3728.0
364.80	3741.5
365.00	3767.4
365.20	3778.2
365.40	3811.7
365.60	3838.0
365.80	3847.5
366.00	3887.9
366.20	3916.4
366.40	3934.2
366.60	3943.0
366.80	3962.4
367.00	4013.6
367.20	4043.2
367.40	4058.9
367.60	4099.0
367.80	4100.9
368.00	4136.1
368.20	4176.8
368.40	4200.4
368.60	4224.0
368.80	4243.7
369.00	4275.6
369.20	4284.8
369.40	4309.7
369.60	4352.1
369.80	4334.4
370.00	4376.4
370.20	4406.2
370.40	4414.1
370.60	4439.4
370.80	4475.8
371.00	4515.9
371.20	4530.0
371.40	4576.0
371.60	4609.8
371.80	4651.1
372.00	4680.0
372.20	4704.7
372.40	4728.0
372.60	4754.6
372.80	4773.9
373.00	4807.7
373.20	4835.6
373.40	4866.5
373.60	4903.6
373.80	4931.8
374.00	4954.8
374.20	4993.9
374.40	5018.5
374.60	5050.0
374.80	5089.4
375.00	5114.4
375.20	5156.1
375.40	5185.6
375.60	5224.7
375.80	5241.1
376.00	5264.4
376.20	5317.6
376.40	5335.6
376.60	5384.5
376.80	5408.8
377.00	5438.0
377.20	5474.2
377.40	5494.5
377.60	5530.0
377.80	5569.7
378.00	5612.7
378.20	5637.0
378.40	5679.7
378.60	5713.2
378.80	5730.9
379.00	5760.4
379.20	5805.7
379.40	5839.9
379.60	5870.7
379.80	5897.3
380.00	5933.8
380.20	5996.8
380.40	6036.8
380.60	6070.0
380.80	6096.9
381.00	6134.0
381.20	6168.8
381.40	6210.5
381.60	6251.5
381.80	6312.9
382.00	6333.3
382.20	6350.0
382.40	6383.2
382.60	6438.3
382.80	6500.4
383.00	6526.0
383.20	6570.0
383.40	6594.3
383.60	6645.8
383.80	6684.2
384.00	6728.9
384.20	6773.2
384.40	6814.6
384.60	6853.3
384.80	6893.3
385.00	6935.0
385.20	6985.6
385.40	7028.3
385.60	7062.7
385.80	7130.7
386.00	7166.5
386.20	7197.3
386.40	7245.9
386.60	7297.1
386.80	7343.4
387.00	7368.7
387.20	7418.9
387.40	7478.0
387.60	7519.4
387.80	7568.6
388.00	7612.6
388.20	7662.8
388.40	7710.8
388.60	7770.5
388.80	7813.5
389.00	7852.3
389.20	7909.4
389.40	7955.7
389.60	7998.3
389.80	8071.9
390.00	8123.4
390.20	8167.4
390.40	8222.6
390.60	8285.6
390.80	8327.6
391.00	8369.3
391.20	8428.1
391.40	8476.0
391.60	8519.7
391.80	8575.5
392.00	8633.6
392.20	8672.0
392.40	8716.3
392.60	8780.0
392.80	8829.2
393.00	8883.1
393.20	8940.2
393.40	8992.4
393.60	9045.9
393.80	9097.1
394.00	9155.2
394.20	9204.5
394.40	9263.6
394.60	9318.4
394.80	9376.8
395.00	9429.0
395.20	9494.3
395.40	9546.9
395.60	9607.9
395.80	9658.2
396.00	9711.3
396.20	9776.3
396.40	9824.9
396.60	9890.9
396.80	9924.7
397.00	10006
397.20	10069
397.40	10130
397.60	10184
397.80	10248
398.00	10296
398.20	10355
398.40	10419
398.60	10484
398.80	10535
399.00	10591
399.20	10656
399.40	10694
399.60	10800
399.80	10842
400.00	10904
400.20	10958
400.40	11017
400.60	11081
400.80	11145
401.00	11199
401.20	11262
401.40	11323
401.60	11393
401.80	11442
402.00	11499
402.20	11562
402.40	11623
402.60	11685
402.80	11752
403.00	11812
403.20	11881
403.40	11940
403.60	11988
403.80	12045
404.00	12112
404.20	12163
404.40	12230
404.60	12285
404.80	12353
405.00	12424
405.20	12489
405.40	12539
405.60	12599
405.80	12667
406.00	12723
406.20	12779
406.40	12826
406.60	12908
406.80	12980
407.00	13042
407.20	13094
407.40	13160
407.60	13219
407.80	13281
408.00	13346
408.20	13401
408.40	13455
408.60	13526
408.80	13584
409.00	13640
409.20	13706
409.40	13761
409.60	13826
409.80	13888
410.00	13938
410.20	13993
410.40	14049
410.60	14128
410.80	14190
411.00	14256
411.20	14318
411.40	14377
411.60	14424
411.80	14493
412.00	14548
412.20	14606
412.40	14672
412.60	14731
412.80	14787
413.00	14839
413.20	14906
413.40	14947
413.60	14991
413.80	15079
414.00	15154
414.20	15192
414.40	15258
414.60	15313
414.80	15363
415.00	15410
415.20	15470
415.40	15552
415.60	15602
415.80	15658
416.00	15688
416.20	15753
416.40	15823
416.60	15879
416.80	15937
417.00	15998
417.20	16052
417.40	16101
417.60	16142
417.80	16195
418.00	16265
418.20	16313
418.40	16371
418.60	16427
418.80	16476
419.00	16526
419.20	16591
419.40	16628
419.60	16684
419.80	16730
420.00	16787
420.20	16833
420.40	16891
420.60	16936
420.80	16982
421.00	17033
421.20	17093
421.40	17135
421.60	17174
421.80	17222
422.00	17271
422.20	17318
422.40	17365
422.60	17409
422.80	17452
423.00	17487
423.20	17545
423.40	17584
423.60	17626
423.80	17681
424.00	17712
424.20	17747
424.40	17796
424.60	17845
424.80	17883
425.00	17915
425.20	17954
425.40	17980
425.60	18021
425.80	18055
426.00	18093
426.20	18129
426.40	18164
426.60	18195
426.80	18218
427.00	18244
427.20	18296
427.40	18330
427.60	18368
427.80	18386
428.00	18404
428.20	18452
428.40	18472
428.60	18511
428.80	18529
429.00	18557
429.20	18594
429.40	18603
429.60	18633
429.80	18670
430.00	18688
430.20	18700
430.40	18729
430.60	18753
430.80	18769
431.00	18794
431.20	18804
431.40	18824
431.60	18839
431.80	18846
432.00	18857
432.20	18857
432.40	18902
432.60	18909
432.80	18926
433.00	18937
433.20	18952
433.40	18958
433.60	18965
433.80	18970
434.00	18965
434.20	18971
434.40	18983
434.60	18985
434.80	18977
435.00	18974
435.20	18964
435.40	18972
435.60	19001
435.80	18995
436.00	18977
436.20	18970
436.40	18953
436.60	18973
436.80	18972
437.00	18972
437.20	18953
437.40	18952
437.60	18933
437.80	18920
438.00	18907
438.20	18911
438.40	18892
438.60	18893
438.80	18863
439.00	18864
439.20	18845
439.40	18826
439.60	18805
439.80	18785
440.00	18764
440.20	18756
440.40	18740
440.60	18718
440.80	18680
441.00	18656
441.20	18636
441.40	18611
441.60	18588
441.80	18565
442.00	18528
442.20	18501
442.40	18480
442.60	18441
442.80	18424
443.00	18409
443.20	18358
443.40	18319
443.60	18296
443.80	18264
444.00	18220
444.20	18188
444.40	18156
444.60	18114
444.80	18072
445.00	18033
445.20	17996
445.40	17951
445.60	17921
445.80	17879
446.00	17832
446.20	17800
446.40	17749
446.60	17724
446.80	17660
447.00	17620
447.20	17571
447.40	17521
447.60	17472
447.80	17427
448.00	17377
448.20	17326
448.40	17270
448.60	17219
448.80	17176
449.00	17121
449.20	17065
449.40	17014
449.60	16952
449.80	16904
450.00	16841
450.20	16794
450.40	16734
450.60	16669
450.80	16596
451.00	16545
451.20	16489
451.40	16417
451.60	16365
451.80	16294
452.00	16225
452.20	16174
452.40	16113
452.60	16045
452.80	15990
453.00	15922
453.20	15854
453.40	15789
453.60	15724
453.80	15644
454.00	15579
454.20	15515
454.40	15447
454.60	15376
454.80	15304
455.00	15229
455.20	15148
455.40	15099
455.60	15034
455.80	14956
456.00	14881
456.20	14810
456.40	14732
456.60	14659
456.80	14582
457.00	14504
457.20	14440
457.40	14369
457.60	14282
457.80	14199
458.00	14133
458.20	14051
458.40	13983
458.60	13904
458.80	13830
459.00	13751
459.20	13676
459.40	13594
459.60	13521
459.80	13441
460.00	13365
460.20	13280
460.40	13199
460.60	13117
460.80	13037
461.00	12966
461.20	12874
461.40	12802
461.60	12718
461.80	12634
462.00	12556
462.20	12470
462.40	12387
462.60	12305
462.80	12237
463.00	12148
463.20	12060
463.40	11987
463.60	11903
463.80	11791
464.00	11722
464.20	11647
464.40	11572
464.60	11486
464.80	11415
465.00	11317
465.20	11231
465.40	11144
465.60	11065
465.80	10980
466.00	10905
466.20	10814
466.40	10726
466.60	10653
466.80	10563
467.00	10485
467.20	10389
467.40	10304
467.60	10225
467.80	10137
468.00	10053
468.20	9967.1
468.40	9875.2
468.60	9788.5
468.80	9706.1
469.00	9623.7
469.20	9530.5
469.40	9427.4
469.60	9371.9
469.80	9285.2
470.00	9180.8
470.20	9118.5
470.40	9020.3
470.60	8940.5
470.80	8856.2
471.00	8780.7
471.20	8685.4
471.40	8599.4
471.60	8519.0
471.80	8432.7
472.00	8348.6
472.20	8266.9
472.40	8177.3
472.60	8089.3
472.80	8018.4
473.00	7917.3
473.20	7844.1
473.40	7760.7
473.60	7679.9
473.80	7590.3
474.00	7513.8
474.20	7435.3
474.40	7349.0
474.60	7267.9
474.80	7188.5
475.00	7105.7
475.20	7029.2
475.40	6953.1
475.60	6868.7
475.80	6788.3
476.00	6712.5
476.20	6636.0
476.40	6556.2
476.60	6469.9
476.80	6396.6
477.00	6333.9
477.20	6265.7
477.40	6183.3
477.60	6115.0
477.80	6048.3
478.00	5969.2
478.20	5901.9
478.40	5821.8
478.60	5755.5
478.80	5692.8
479.00	5599.2
479.20	5538.8
479.40	5479.7
479.60	5413.8
479.80	5346.5
480.00	5277.5
480.20	5222.7
480.40	5143.2
480.60	5085.8
480.80	5036.6
481.00	4953.8
481.20	4898.0
481.40	4834.0
481.60	4770.0
481.80	4714.8
482.00	4656.7
482.20	4602.6
482.40	4547.7
482.60	4480.4
482.80	4425.6
483.00	4360.9
483.20	4303.8
483.40	4256.9
483.60	4191.2
483.80	4141.0
484.00	4095.4
484.20	4038.2
484.40	3978.5
484.60	3932.2
484.80	3885.9
485.00	3824.9
485.20	3775.3
485.40	3730.0
485.60	3681.7
485.80	3629.9
486.00	3579.6
486.20	3538.9
486.40	3478.2
486.60	3439.4
486.80	3394.5
487.00	3349.5
487.20	3305.5
487.40	3264.1
487.60	3213.9
487.80	3178.1
488.00	3128.2
488.20	3087.5
488.40	3033.0
488.60	2992.7
488.80	2976.9
489.00	2930.9
489.20	2889.9
489.40	2863.0
489.60	2815.4
489.80	2782.5
490.00	2739.2
490.20	2705.7
490.40	2654.8
490.60	2631.5
490.80	2600.0
491.00	2556.4
491.20	2522.5
491.40	2476.6
491.60	2458.2
491.80	2428.3
492.00	2405.7
492.20	2369.2
492.40	2328.2
492.60	2295.0
492.80	2272.1
493.00	2246.5
493.20	2224.8
493.40	2190.0
493.60	2152.9
493.80	2131.9
494.00	2111.9
494.20	2091.5
494.40	2070.8
494.60	2029.1
494.80	2006.5
495.00	1969.7
495.20	1944.4
495.40	1935.6
495.60	1910.3
495.80	1895.5
496.00	1856.1
496.20	1839.1
496.40	1823.6
496.60	1810.8
496.80	1787.2
497.00	1761.9
497.20	1740.6
497.40	1713.0
497.60	1692.3
497.80	1675.9
498.00	1658.5
498.20	1638.1
498.40	1617.1
498.60	1608.6
498.80	1580.7
499.00	1556.4
499.20	1554.4
499.40	1537.7
499.60	1519.6
499.80	1503.5
500.00	1492.1
500.20	1467.8
500.40	1450.4
500.60	1443.5
500.80	1431.0
501.00	1420.5
501.20	1394.2
501.40	1373.2
501.60	1363.7
501.80	1347.9
502.00	1341.7
502.20	1317.7
502.40	1315.1
502.60	1305.6
502.80	1286.6
503.00	1272.8
503.20	1258.0
503.40	1257.3
503.60	1246.5
503.80	1233.4
504.00	1225.2
504.20	1210.1
504.40	1201.9
504.60	1190.0
504.80	1175.6
505.00	1167.1
505.20	1161.8
505.40	1152.0
505.60	1141.1
505.80	1133.9
506.00	1126.3
506.20	1112.6
506.40	1105.0
506.60	1099.4
506.80	1101.1
507.00	1083.7
507.20	1074.5
507.40	1067.6
507.60	1060.4
507.80	1048.5
508.00	1043.0
508.20	1025.2
508.40	1011.4
508.60	1029.5
508.80	1036.4
509.00	1022.9
509.20	1017.4
509.40	1002.6
509.60	989.78
509.80	994.38
510.00	995.03
510.20	979.60
510.40	978.29
510.60	963.52
510.80	964.83
511.00	963.85
511.20	965.82
511.40	949.73
511.60	946.78
511.80	948.09
512.00	933.97
512.20	916.57
512.40	925.77
512.60	920.84
512.80	924.78
513.00	916.90
513.20	906.40
513.40	892.28
513.60	897.86
513.80	896.88
514.00	893.92
514.20	888.67
514.40	875.21
514.60	874.88
514.80	879.81
515.00	867.66
515.20	865.36
515.40	868.64
515.60	860.11
515.80	857.48
516.00	859.45
516.20	848.62
516.40	846.32
516.60	845.66
516.80	843.69
517.00	831.88
517.20	842.05
517.40	839.43
517.60	824.00
517.80	822.03
518.00	826.62
518.20	819.40
518.40	818.09
518.60	818.42
518.80	811.85
519.00	804.30
519.20	809.22
519.40	799.05
519.60	794.45
519.80	798.06
520.00	793.14
520.20	794.45
520.40	787.56
520.60	781.65
520.80	779.02
521.00	767.86
521.20	756.04
521.40	775.74
521.60	775.74
521.80	776.07
522.00	771.14
522.20	764.91
522.40	764.25
522.60	758.01
522.80	759.65
523.00	760.64
523.20	754.40
523.40	756.70
523.60	751.77
523.80	748.82
524.00	745.86
524.20	743.89
524.40	742.58
524.60	743.57
524.80	735.03
525.00	721.24
525.20	736.34
525.40	728.79
525.60	737.00
525.80	743.57
526.00	728.79
526.20	710.08
526.40	719.60
526.60	727.15
526.80	722.23
527.00	719.93
527.20	723.54
527.40	713.04
527.60	719.27
527.80	719.93
528.00	714.35
528.20	704.83
528.40	711.07
528.60	715.66
528.80	705.16
529.00	703.84
529.20	711.39
529.40	703.84
529.60	697.93
529.80	697.93
530.00	694.32
530.20	687.10
530.40	688.41
530.60	682.51
530.80	684.80
531.00	685.79
531.20	684.48
531.40	683.16
531.60	683.82
531.80	682.18
532.00	688.74
532.20	681.52
532.40	685.79
532.60	681.52
532.80	684.80
533.00	681.52
533.20	683.82
533.40	678.24
533.60	676.60
533.80	673.31
534.00	674.30
534.20	679.55
534.40	676.27
534.60	671.02
534.80	671.34
535.00	672.00
535.20	674.63
535.40	665.11
535.60	665.76
535.80	669.37
536.00	669.37
536.20	667.08
536.40	669.05
536.60	668.72
536.80	661.17
537.00	664.78
537.20	667.08
537.40	664.12
537.60	660.84
537.80	664.45
538.00	659.20
538.20	659.85
538.40	660.18
538.60	660.84
538.80	657.23
539.00	661.82
539.20	662.48
539.40	654.60
539.60	654.60
539.80	657.23
540.00	658.87
540.20	655.26
540.40	661.17
540.60	662.48
540.80	655.59
541.00	661.17
541.20	657.23
541.40	654.93
541.60	652.63
541.80	656.57
542.00	659.53
542.20	653.62
542.40	656.90
542.60	653.29
542.80	652.63
543.00	650.99
543.20	656.57
543.40	658.54
543.60	654.93
543.80	652.63
544.00	659.53
544.20	651.98
544.40	651.32
544.60	658.54
544.80	639.50
545.00	628.34
545.20	656.90
545.40	659.85
545.60	654.60
545.80	650.99
546.00	637.53
546.20	656.90
546.40	655.91
546.60	651.32
546.80	646.39
547.00	641.47
547.20	650.66
547.40	647.71
547.60	651.32
547.80	649.35
548.00	654.60
548.20	648.69
548.40	651.32
548.60	652.63
548.80	648.69
549.00	650.99
549.20	650.33
549.40	654.27
549.60	654.93
549.80	659.53
550.00	639.50
550.20	660.84
550.40	646.39
550.60	651.32
550.80	644.75
551.00	647.05
551.20	654.93
551.40	653.29
551.60	645.74
551.80	646.39
552.00	652.30
552.20	649.02
552.40	655.59
552.60	645.74
552.80	649.02
553.00	648.69
553.20	651.98
553.40	643.77
553.60	645.08
553.80	649.02
554.00	647.05
554.20	643.44
554.40	653.29
554.60	649.02
554.80	643.77
555.00	647.38
555.20	649.02
555.40	646.39
555.60	650.33
555.80	649.02
556.00	645.08
556.20	647.38
556.40	645.74
556.60	641.14
556.80	643.77
557.00	644.42
557.20	644.10
557.40	643.11
557.60	643.11
557.80	639.17
558.00	633.59
558.20	634.25
558.40	645.74
558.60	642.78
558.80	637.20
559.00	637.86
559.20	632.93
559.40	637.53
559.60	638.19
559.80	639.50
560.00	640.81
560.20	637.20
560.40	639.17
560.60	642.45
560.80	635.89
561.00	640.49
561.20	643.44
561.40	633.26
561.60	634.90
561.80	635.89
562.00	628.99
562.20	626.37
562.40	640.16
562.60	641.80
562.80	629.98
563.00	633.59
563.20	636.22
563.40	635.23
563.60	633.59
563.80	630.96
564.00	629.98
564.20	634.25
564.40	629.98
564.60	626.37
564.80	625.38
565.00	638.19
565.20	626.37
565.40	620.46
565.60	636.55
565.80	626.37
566.00	621.44
566.20	614.55
566.40	614.55
566.60	621.44
566.80	624.07
567.00	622.76
567.20	623.41
567.40	628.34
567.60	632.93
567.80	625.38
568.00	615.21
568.20	614.88
568.40	629.98
568.60	627.03
568.80	623.74
569.00	603.39
569.20	621.44
569.40	620.79
569.60	612.91
569.80	615.21
570.00	614.55
570.20	628.99
570.40	617.18
570.60	613.57
570.80	616.85
571.00	615.54
571.20	612.91
571.40	616.85
571.60	615.86
571.80	606.34
572.00	607.00
572.20	612.25
572.40	611.60
572.60	608.31
572.80	616.85
573.00	607.33
573.20	601.09
573.40	609.30
573.60	607.66
573.80	600.76
574.00	607.98
574.20	607.33
574.40	604.05
574.60	606.02
574.80	602.40
575.00	604.70
575.20	604.37
575.40	602.73
575.60	602.73
575.80	603.06
576.00	604.37
576.20	606.02
576.40	604.70
576.60	598.46
576.80	600.43
577.00	601.42
577.20	584.68
577.40	587.63
577.60	602.73
577.80	602.40
578.00	600.76
578.20	598.79
578.40	599.45
578.60	594.20
578.80	602.08
579.00	591.90
579.20	598.14
579.40	603.72
579.60	598.79
579.80	588.29
580.00	597.81
580.20	589.93
580.40	589.93
580.60	594.85
580.80	591.24
581.00	597.81
581.20	586.65
581.40	598.14
581.60	593.54
581.80	587.63
582.00	587.30
582.20	593.21
582.40	589.60
582.60	593.54
582.80	594.53
583.00	593.54
583.20	588.94
583.40	591.24
583.60	585.33
583.80	589.93
584.00	591.24
584.20	588.94
584.40	586.65
584.60	586.65
584.80	588.94
585.00	590.59
585.20	582.71
585.40	587.96
585.60	590.59
585.80	587.30
586.00	585.66
586.20	582.71
586.40	583.04
586.60	577.78
586.80	584.68
587.00	588.29
587.20	584.68
587.40	577.45
587.60	584.68
587.80	579.75
588.00	574.17
588.20	582.71
588.40	578.11
588.60	573.19
588.80	584.68
589.00	576.47
589.20	575.48
589.40	578.44
589.60	572.53
589.80	566.29
590.00	580.08
590.20	573.51
590.40	567.93
590.60	569.90
590.80	571.55
591.00	569.58
591.20	565.64
591.40	574.83
591.60	564.32
591.80	567.61
592.00	566.95
592.20	566.29
592.40	557.43
592.60	563.34
592.80	565.31
593.00	563.99
593.20	561.04
593.40	562.68
593.60	555.46
593.80	556.12
594.00	561.70
594.20	557.43
594.40	553.16
594.60	552.50
594.80	554.47
595.00	556.44
595.20	550.53
595.40	550.86
595.60	558.74
595.80	551.19
596.00	547.91
596.20	552.83
596.40	546.27
596.60	545.61
596.80	548.57
597.00	542.33
597.20	537.08
597.40	530.84
597.60	531.17
597.80	544.30
598.00	542.33
598.20	546.60
598.40	540.36
598.60	542.00
598.80	547.25
599.00	537.40
599.20	530.84
599.40	526.90
599.60	528.54
599.80	515.41
600.00	523.29
600.20	529.85
600.40	538.06
600.60	531.82
600.80	531.17
601.00	518.36
601.20	522.30
601.40	520.99
601.60	516.39
601.80	512.78
602.00	502.61
602.20	516.06
602.40	516.39
602.60	520.00
602.80	514.75
603.00	507.53
603.20	522.30
603.40	511.80
603.60	507.53
603.80	508.84
604.00	503.26
604.20	505.89
604.40	498.99
604.60	488.82
604.80	486.19
605.00	502.28
605.20	500.64
605.40	505.56
605.60	496.70
605.80	496.04
606.00	493.41
606.20	487.50
606.40	485.53
606.60	485.53
606.80	483.24
607.00	473.06
607.20	465.18
607.40	491.77
607.60	480.94
607.80	480.94
608.00	482.25
608.20	473.06
608.40	468.14
608.60	475.36
608.80	470.43
609.00	461.57
609.20	460.58
609.40	456.97
609.60	455.00
609.80	469.45
610.00	467.81
610.20	457.96
610.40	456.65
610.60	462.23
610.80	454.35
611.00	455.66
611.20	453.69
611.40	458.29
611.60	449.75
611.80	448.44
612.00	446.47
612.20	442.53
612.40	444.50
612.60	426.77
612.80	440.23
613.00	439.57
613.20	443.84
613.40	447.45
613.60	435.96
613.80	434.65
614.00	434.32
614.20	431.70
614.40	427.10
614.60	430.05
614.80	429.07
615.00	426.11
615.20	424.14
615.40	420.53
615.60	409.37
615.80	393.29
616.00	414.62
616.20	421.85
616.40	414.62
616.60	418.24
616.80	414.62
617.00	409.70
617.20	411.34
617.40	408.39
617.60	403.46
617.80	399.20
618.00	402.48
618.20	381.14
618.40	385.41
618.60	403.79
618.80	403.13
619.00	397.55
619.20	400.84
619.40	396.57
619.60	389.02
619.80	390.66
620.00	387.38
620.20	385.08
620.40	380.48
620.60	373.26
620.80	356.52
621.00	370.63
621.20	382.12
621.40	376.54
621.60	374.90
621.80	371.29
622.00	371.95
622.20	364.40
622.40	359.14
622.60	352.91
622.80	346.01
623.00	361.44
623.20	360.46
623.40	361.11
623.60	356.85
623.80	354.55
624.00	359.14
624.20	348.64
624.40	341.75
624.60	351.27
624.80	349.62
625.00	345.36
625.20	343.39
625.40	349.95
625.60	344.37
625.80	346.01
626.00	341.42
626.20	335.84
626.40	333.87
626.60	336.49
626.80	337.15
627.00	331.24
627.20	333.21
627.40	328.29
627.60	321.06
627.80	324.35
628.00	322.05
628.20	323.69
628.40	318.44
628.60	324.35
628.80	312.20
629.00	316.80
629.20	315.48
629.40	309.24
629.60	302.68
629.80	317.78
630.00	308.59
630.20	302.35
630.40	309.90
630.60	305.63
630.80	303.34
631.00	298.74
631.20	304.32
631.40	300.38
631.60	298.74
631.80	297.43
632.00	291.52
632.20	289.88
632.40	282.33
632.60	282.33
632.80	278.06
633.00	289.22
633.20	293.49
633.40	288.89
633.60	282.98
633.80	285.94
634.00	282.00
634.20	282.33
634.40	272.81
634.60	274.12
634.80	274.77
635.00	272.81
635.20	277.07
635.40	276.09
635.60	263.94
635.80	270.18
636.00	269.52
636.20	262.30
636.40	264.60
636.60	264.93
636.80	262.96
637.00	257.70
637.20	264.60
637.40	260.66
637.60	258.03
637.80	255.08
638.00	254.75
638.20	255.08
638.40	255.41
638.60	252.78
638.80	248.18
639.00	246.21
639.20	244.24
639.40	245.56
639.60	245.56
639.80	240.96
640.00	243.92
640.20	239.65
640.40	235.38
640.60	233.74
640.80	234.07
641.00	237.35
641.20	234.40
641.40	236.04
641.60	238.66
641.80	230.46
642.00	233.08
642.20	228.81
642.40	230.78
642.60	229.80
642.80	223.89
643.00	222.91
643.20	221.92
643.40	216.67
643.60	220.28
643.80	223.56
644.00	219.62
644.20	214.04
644.40	217.98
644.60	218.97
644.80	215.03
645.00	213.39
645.20	219.29
645.40	211.42
645.60	209.45
645.80	210.43
646.00	205.18
646.20	210.10
646.40	210.10
646.60	200.91
646.80	196.64
647.00	205.18
647.20	203.21
647.40	194.02
647.60	201.24
647.80	209.77
648.00	192.05
648.20	195.00
648.40	196.97
648.60	198.61
648.80	191.06
649.00	190.73
649.20	190.08
649.40	196.64
649.60	191.72
649.80	189.75
650.00	189.09
650.20	198.28
650.40	188.76
650.60	188.44
650.80	192.70
651.00	184.50
651.20	191.39
651.40	180.89
651.60	178.92
651.80	181.54
652.00	181.21
652.20	174.32
652.40	173.66
652.60	179.57
652.80	182.86
653.00	176.29
653.20	169.40
653.40	165.13
653.60	181.21
653.80	179.24
654.00	170.05
654.20	175.96
654.40	166.44
654.60	163.81
654.80	158.89
655.00	169.07
655.20	176.95
655.40	161.52
655.60	154.29
655.80	154.95
656.00	162.50
656.20	161.19
656.40	172.02
656.60	163.49
656.80	161.52
657.00	163.81
657.20	156.92
657.40	144.77
657.60	161.84
657.80	170.71
658.00	156.59
658.20	158.56
658.40	149.37
658.60	152.98
658.80	160.53
659.00	157.58
659.20	141.16
659.40	139.19
659.60	141.49
659.80	150.68
660.00	155.61
660.20	141.16
660.40	156.92
660.60	147.73
660.80	154.62
661.00	137.88
661.20	144.77
661.40	147.73
661.60	140.51
661.80	141.16
662.00	144.77
662.20	132.96
662.40	138.54
662.60	137.22
662.80	128.69
663.00	130.66
663.20	139.52
663.40	121.47
663.60	120.81
663.80	121.47
664.00	120.48
664.20	131.64
664.40	129.34
664.60	124.42
664.80	119.50
665.00	124.75
665.20	123.76
665.40	127.05
665.60	122.78
665.80	123.11
666.00	121.79
666.20	118.51
666.40	122.78
666.60	128.69
666.80	128.03
667.00	127.05
667.20	127.05
667.40	117.53
667.60	123.76
667.80	106.36
668.00	129.34
668.20	139.85
668.40	114.24
668.60	119.82
668.80	123.76
669.00	118.84
669.20	119.82
669.40	121.14
669.60	126.39
669.80	127.05
670.00	114.24
670.20	120.81
670.40	122.12
670.60	119.82
670.80	113.59
671.00	119.17
671.20	111.29
671.40	108.01
671.60	95.203
671.80	112.93
672.00	118.51
672.20	120.81
672.40	128.36
672.60	125.73
672.80	121.47
673.00	125.08
673.20	127.37
673.40	132.96
673.60	121.79
673.80	103.41
674.00	104.72
674.20	129.02
674.40	114.57
674.60	123.44
674.80	128.69
675.00	127.37
675.20	123.44
675.40	112.60
675.60	132.30
675.80	115.23
676.00	111.29
676.20	128.69
676.40	111.29
676.60	104.39
676.80	110.63
677.00	92.905
677.20	83.385
677.40	105.38
677.60	106.69
677.80	116.54
678.00	94.875
678.20	111.95
678.40	102.10
678.60	102.10
678.80	107.02
679.00	101.77
679.20	89.622
679.40	76.491
679.60	100.78
679.80	105.38
680.00	102.43
680.20	96.188
680.40	97.501
680.60	88.965
680.80	91.920
681.00	91.263
681.20	96.188
681.40	86.996
681.60	92.577
681.80	99.799
682.00	99.142
682.20	100.78
682.40	93.561
682.60	92.577
682.80	89.294
683.00	93.233
683.20	84.369
683.40	87.981
683.60	97.829
683.80	90.935
684.00	90.935
684.20	88.309
684.40	93.890
684.60	86.996
684.80	89.622
685.00	88.637
685.20	82.400
685.40	91.920
685.60	91.920
685.80	90.935
686.00	98.486
686.20	101.11
686.40	93.890
686.60	96.516
686.80	96.844
687.00	97.829
687.20	96.188
687.40	98.157
687.60	93.233
687.80	92.248
688.00	91.920
688.20	94.875
688.40	95.859
688.60	86.996
688.80	87.981
689.00	88.637
689.20	87.981
689.40	77.475
689.60	88.637
689.80	78.460
690.00	83.385
690.20	78.460
690.40	83.385
690.60	72.879
690.80	77.475
691.00	83.713
691.20	81.087
691.40	75.177
691.60	83.056
691.80	82.400
692.00	74.193
692.20	80.102
692.40	75.834
692.60	67.955
692.80	75.177
693.00	68.940
693.20	61.718
693.40	68.612
693.60	67.299
693.80	66.970
694.00	63.687
694.20	72.551
694.40	76.491
694.60	83.713
694.80	82.071
695.00	77.804
695.20	75.834
695.40	78.789
695.60	79.445
695.80	69.597
696.00	73.536
696.20	72.879
696.40	77.475
696.60	82.071
696.80	80.430
697.00	78.132
697.20	77.475
697.40	68.612
697.60	78.789
697.80	76.819
698.00	66.642
698.20	63.359
698.40	69.597
698.60	71.895
698.80	71.238
699.00	78.789
699.20	57.122
699.40	65.329
699.60	70.910
699.80	76.819
700.00	77.804
700.20	73.208
700.40	77.147
700.60	60.733
700.80	68.283
701.00	68.283
701.20	72.879
701.40	76.162
701.60	69.925
701.80	64.672
702.00	66.642
702.20	66.970
702.40	67.299
702.60	72.879
702.80	81.087
703.00	68.612
703.20	70.581
703.40	71.566
703.60	65.329
703.80	52.197
704.00	56.793
704.20	67.299
704.40	59.748
704.60	70.581
704.80	75.506
705.00	76.491
705.20	68.940
705.40	57.122
705.60	65.985
705.80	72.223
706.00	75.506
706.20	65.001
706.40	68.940
706.60	65.985
706.80	65.001
707.00	64.344
707.20	74.193
707.40	66.314
707.60	59.091
707.80	53.511
708.00	58.763
708.20	66.642
708.40	78.460
708.60	66.970
708.80	67.627
709.00	65.329
709.20	70.253
709.40	59.748
709.60	61.389
709.80	57.122
710.00	63.687
710.20	81.087
710.40	68.283
710.60	64.016
710.80	69.597
711.00	59.091
711.20	74.521
711.40	62.374
711.60	64.672
711.80	64.016
712.00	65.657
712.20	70.581
712.40	62.046
712.60	59.748
712.80	62.703
713.00	59.420
713.20	61.389
713.40	72.223
713.60	64.344
713.80	59.748
714.00	72.223
714.20	63.031
714.40	68.612
714.60	67.299
714.80	65.657
715.00	68.612
715.20	55.480
715.40	63.031
715.60	49.571
715.80	57.778
716.00	59.420
716.20	59.091
716.40	50.556
716.60	59.748
716.80	68.283
717.00	65.329
717.20	71.895
717.40	51.541
717.60	63.687
717.80	60.076
718.00	53.839
718.20	77.804
718.40	56.793
718.60	50.228
718.80	68.940
719.00	55.480
719.20	60.405
719.40	62.046
719.60	56.137
719.80	62.046
720.00	45.632
720.20	44.647
720.40	65.657
720.60	75.177
720.80	60.405
721.00	61.389
721.20	73.208
721.40	65.657
721.60	60.076
721.80	67.299
722.00	61.061
722.20	56.465
722.40	58.763
722.60	62.374
722.80	68.283
723.00	57.778
723.20	61.718
723.40	63.359
723.60	61.061
723.80	66.970
724.00	53.182
724.20	59.091
724.40	66.642
724.60	63.687
724.80	53.511
725.00	54.495
725.20	63.359
725.40	72.551
725.60	53.839
725.80	52.526
726.00	64.672
726.20	60.733
726.40	59.091
726.60	61.718
726.80	46.617
727.00	56.793
727.20	71.895
727.40	56.465
727.60	57.122
727.80	73.864
728.00	56.793
728.20	56.465
728.40	56.465
728.60	56.137
728.80	55.152
729.00	66.970
729.20	60.076
729.40	60.405
729.60	48.915
729.80	38.409
730.00	48.586
730.20	50.228
730.40	37.425
730.60	55.809
730.80	62.374
731.00	45.632
731.20	47.930
731.40	55.809
731.60	57.450
731.80	54.824
732.00	65.329
732.20	66.970
732.40	52.854
732.60	63.031
732.80	67.955
733.00	51.213
733.20	66.314
733.40	53.839
733.60	58.107
733.80	59.091
734.00	57.122
734.20	54.495
734.40	61.718
734.60	48.586
734.80	51.869
735.00	46.945
735.20	45.960
735.40	68.612
735.60	53.511
735.80	55.480
736.00	65.001
736.20	61.389
736.40	47.601
736.60	55.152
736.80	67.627
737.00	52.197
737.20	67.299
737.40	44.975
737.60	57.450
737.80	73.536
738.00	49.571
738.20	54.824
738.40	64.344
738.60	62.046
738.80	52.197
739.00	58.107
739.20	68.283
739.40	53.511
739.60	58.763
739.80	63.031
740.00	45.632
740.20	59.420
740.40	59.748
740.60	65.985
740.80	47.601
741.00	58.763
741.20	40.707
741.40	48.586
741.60	50.228
741.80	54.824
742.00	57.778
742.20	55.809
742.40	43.662
742.60	63.031
742.80	51.541
743.00	64.344
743.20	48.586
743.40	41.364
743.60	48.586
743.80	45.632
744.00	46.288
744.20	62.046
744.40	51.541
744.60	46.945
744.80	48.258
745.00	54.824
745.20	47.273
745.40	40.379
745.60	43.334
745.80	55.809
746.00	44.647
746.20	41.692
746.40	59.420
746.60	59.748
746.80	39.066
747.00	46.288
747.20	53.511
747.40	61.061
747.60	44.975
747.80	50.556
748.00	50.228
748.20	44.975
748.40	54.824
748.60	48.258
748.80	50.556
749.00	55.480
749.20	52.197
749.40	50.228
749.60	45.960
749.80	38.081
750.00	52.526
750.20	60.405
750.40	45.303
750.60	58.435
750.80	50.884
751.00	52.197
751.20	43.005
751.40	58.763
751.60	44.975
751.80	43.334
752.00	53.182
752.20	54.495
752.40	51.213
752.60	62.703
752.80	45.632
753.00	58.107
753.20	51.869
753.40	40.707
753.60	56.137
753.80	47.601
754.00	54.824
754.20	48.258
754.40	58.107
754.60	48.586
754.80	52.526
755.00	47.930
755.20	54.824
755.40	48.586
755.60	47.273
755.80	53.182
756.00	44.319
756.20	43.334
756.40	63.031
756.60	42.677
756.80	45.303
757.00	54.495
757.20	43.990
757.40	39.723
757.60	37.096
757.80	37.753
758.00	42.349
758.20	40.379
758.40	43.662
758.60	40.379
758.80	55.480
759.00	33.813
759.20	45.960
759.40	49.243
759.60	38.081
759.80	47.601
760.00	38.738
760.20	49.243
760.40	34.798
760.60	38.081
760.80	43.005
761.00	25.606
761.20	42.677
761.40	43.990
761.60	44.975
761.80	44.975
762.00	44.975
762.20	42.349
762.40	48.586
762.60	41.036
762.80	37.096
763.00	47.601
763.20	39.723
763.40	35.455
763.60	39.723
763.80	39.394
764.00	38.409
764.20	48.258
764.40	46.945
764.60	42.349
764.80	31.844
765.00	41.036
765.20	33.157
765.40	47.273
765.60	42.677
765.80	37.425
766.00	32.829
766.20	37.425
766.40	25.935
766.60	52.854
766.80	53.839
767.00	51.213
767.20	41.692
767.40	46.288
767.60	45.303
767.80	41.692
768.00	40.051
768.20	48.258
768.40	49.571
768.60	41.364
768.80	43.990
769.00	34.142
769.20	26.919
769.40	53.182
769.60	52.526
769.80	50.884
770.00	52.526
770.20	42.677
770.40	46.288
770.60	40.379
770.80	46.617
771.00	49.571
771.20	46.288
771.40	41.036
771.60	53.182
771.80	43.334
772.00	39.723
772.20	23.637
772.40	35.783
772.60	39.066
772.80	39.723
773.00	40.379
773.20	30.531
773.40	44.319
773.60	44.647
773.80	41.036
774.00	30.859
774.20	41.036
774.40	38.081
774.60	27.248
774.80	42.021
775.00	34.798
775.20	33.813
775.40	35.127
775.60	31.187
775.80	37.425
776.00	38.738
776.20	41.036
776.40	30.859
776.60	33.485
776.80	36.111
777.00	36.440
777.20	26.263
777.40	28.561
777.60	27.248
777.80	32.500
778.00	40.379
778.20	41.036
778.40	36.111
778.60	36.768
778.80	30.531
779.00	35.127
779.20	47.273
779.40	24.621
779.60	29.217
779.80	37.753
780.00	37.096
780.20	39.066
780.40	30.531
780.60	21.339
780.80	27.576
781.00	45.632
781.20	36.768
781.40	38.409
781.60	38.409
781.80	42.021
782.00	35.783
782.20	36.768
782.40	47.930
782.60	38.409
782.80	36.440
783.00	41.036
783.20	34.470
783.40	46.288
783.60	40.051
783.80	38.409
784.00	44.647
784.20	47.601
784.40	48.258
784.60	43.990
784.80	38.409
785.00	43.662
785.20	41.692
785.40	52.854
785.60	37.753
785.80	39.723
786.00	47.273
786.20	45.960
786.40	39.066
786.60	48.586
786.80	44.319
787.00	31.187
787.20	31.515
787.40	29.874
787.60	25.935
787.80	41.036
788.00	39.066
788.20	35.783
788.40	35.127
788.60	32.829
788.80	37.425
789.00	35.783
789.20	30.202
789.40	39.394
789.60	37.425
789.80	34.798
790.00	35.455
790.20	24.293
790.40	33.485
790.60	40.379
790.80	35.783
791.00	33.813
791.20	29.874
791.40	35.455
791.60	40.051
791.80	30.859
792.00	25.606
792.20	36.440
792.40	31.515
792.60	23.637
792.80	30.531
793.00	23.308
793.20	28.561
793.40	30.859
793.60	25.606
793.80	16.743
794.00	23.965
794.20	18.056
794.40	16.086
794.60	28.561
794.80	33.157
795.00	25.935
795.20	29.546
795.40	27.904
795.60	21.010
795.80	22.652
796.00	22.980
796.20	20.682
796.40	9.8486
796.60	14.773
796.80	8.2071
797.00	4.5960
797.20	7.2223
797.40	7.8789
797.60	5.9091
797.80	7.2223
798.00	12.803
798.20	2.9546
798.40	10.177
798.60	9.5203
798.80	17.727
799.00	11.490
799.20	13.788
799.40	9.5203
799.60	-1.3131
799.80	9.5203
800.00	16.743
