Wavelength (nm)	"48, Inorg Chem 2000_1128, B Pd"
200.00	
201.00	
202.00	
203.00	
204.00	
205.00	
206.00	
207.00	
208.00	
209.00	
210.00	
211.00	
212.00	
213.00	
214.00	
215.00	
216.00	
217.00	
218.00	
219.00	
220.00	
221.00	
222.00	
223.00	
224.00	
225.00	
226.00	
227.00	
228.00	
229.00	
230.00	
231.00	
232.00	
233.00	
234.00	
235.00	
236.00	
237.00	
238.00	
239.00	
240.00	
241.00	
242.00	
243.00	
244.00	
245.00	
246.00	
247.00	
248.00	
249.00	
250.00	0.28744
251.00	0.28966
252.00	0.29188
253.00	0.29411
254.00	0.29633
255.00	0.29855
256.00	0.30181
257.00	0.30649
258.00	0.31118
259.00	0.31586
260.00	0.32187
261.00	0.33022
262.00	0.33857
263.00	0.34724
264.00	0.35640
265.00	0.36556
266.00	0.37535
267.00	0.38896
268.00	0.40257
269.00	0.41779
270.00	0.43365
271.00	0.44952
272.00	0.47670
273.00	0.50388
274.00	0.52525
275.00	0.54551
276.00	0.56576
277.00	0.59640
278.00	0.62873
279.00	0.65844
280.00	0.68468
281.00	0.71092
282.00	0.73683
283.00	0.76261
284.00	0.78839
285.00	0.81477
286.00	0.84178
287.00	0.86880
288.00	0.89581
289.00	0.92139
290.00	0.94691
291.00	0.96892
292.00	0.98781
293.00	0.99195
294.00	0.99463
295.00	0.99732
296.00	1.0000
297.00	0.99691
298.00	0.99383
299.00	0.99074
300.00	0.98155
301.00	0.96828
302.00	0.95363
303.00	0.93227
304.00	0.91091
305.00	0.88728
306.00	0.86099
307.00	0.83470
308.00	0.80702
309.00	0.77437
310.00	0.74172
311.00	0.71010
312.00	0.67947
313.00	0.64958
314.00	0.62822
315.00	0.60687
316.00	0.58723
317.00	0.57052
318.00	0.55381
319.00	0.53825
320.00	0.52438
321.00	0.51052
322.00	0.49666
323.00	0.48449
324.00	0.47254
325.00	0.46185
326.00	0.45683
327.00	0.45181
328.00	0.44679
329.00	0.44307
330.00	0.44137
331.00	0.43967
332.00	0.43797
333.00	0.43628
334.00	0.43652
335.00	0.43856
336.00	0.44060
337.00	0.44264
338.00	0.44469
339.00	0.44841
340.00	0.45299
341.00	0.45758
342.00	0.46217
343.00	0.46675
344.00	0.47134
345.00	0.47639
346.00	0.48163
347.00	0.48687
348.00	0.49211
349.00	0.49736
350.00	0.50264
351.00	0.50916
352.00	0.51568
353.00	0.52219
354.00	0.52871
355.00	0.53233
356.00	0.53586
357.00	0.53939
358.00	0.54292
359.00	0.54644
360.00	0.54997
361.00	0.55350
362.00	0.55754
363.00	0.56162
364.00	0.56569
365.00	0.56977
366.00	0.57361
367.00	0.57434
368.00	0.57507
369.00	0.57580
370.00	0.57653
371.00	0.57726
372.00	0.57734
373.00	0.57641
374.00	0.57548
375.00	0.57454
376.00	0.57361
377.00	0.57268
378.00	0.57153
379.00	0.56926
380.00	0.56700
381.00	0.56474
382.00	0.56247
383.00	0.56021
384.00	0.55795
385.00	0.55569
386.00	0.55477
387.00	0.55408
388.00	0.55338
389.00	0.55268
390.00	0.55199
391.00	0.55129
392.00	0.55136
393.00	0.55150
394.00	0.55164
395.00	0.55178
396.00	0.55191
397.00	0.55205
398.00	0.54891
399.00	0.54563
400.00	0.54235
401.00	0.53705
402.00	0.52254
403.00	0.50804
404.00	0.49354
405.00	0.47768
406.00	0.46172
407.00	0.44575
408.00	0.42979
409.00	0.41395
410.00	0.39988
411.00	0.38582
412.00	0.37176
413.00	0.35769
414.00	0.34363
415.00	0.33100
416.00	0.31913
417.00	0.30726
418.00	0.29539
419.00	0.28524
420.00	0.27857
421.00	0.27190
422.00	0.26523
423.00	0.25856
424.00	0.25189
425.00	0.24605
426.00	0.24159
427.00	0.23712
428.00	0.23266
429.00	0.22820
430.00	0.22373
431.00	0.21927
432.00	0.21569
433.00	0.21384
434.00	0.21199
435.00	0.21013
436.00	0.20828
437.00	0.20643
438.00	0.20458
439.00	0.20273
440.00	0.20087
441.00	0.19902
442.00	0.19721
443.00	0.19598
444.00	0.19474
445.00	0.19351
446.00	0.19227
447.00	0.19104
448.00	0.18980
449.00	0.18857
450.00	0.18733
451.00	0.18610
452.00	0.18486
453.00	0.18363
454.00	0.18239
455.00	0.18117
456.00	0.17996
457.00	0.17875
458.00	0.17754
459.00	0.17633
460.00	0.17512
461.00	0.17391
462.00	0.17270
463.00	0.17150
464.00	0.17029
465.00	0.16908
466.00	0.16787
467.00	0.16630
468.00	0.16459
469.00	0.16288
470.00	0.16117
471.00	0.15946
472.00	0.15775
473.00	0.15604
474.00	0.15433
475.00	0.15262
476.00	0.15026
477.00	0.14730
478.00	0.14435
479.00	0.14140
480.00	0.13844
481.00	0.13549
482.00	0.13254
483.00	0.12959
484.00	0.12605
485.00	0.12226
486.00	0.11847
487.00	0.11467
488.00	0.11088
489.00	0.10709
490.00	0.10330
491.00	0.099504
492.00	0.095530
493.00	0.091522
494.00	0.087514
495.00	0.083506
496.00	0.079498
497.00	0.075490
498.00	0.071482
499.00	0.067474
500.00	0.064076
501.00	0.060677
502.00	0.057279
503.00	0.053881
504.00	0.050482
505.00	0.047084
506.00	0.043686
507.00	0.041566
508.00	0.039994
509.00	0.038422
510.00	0.036850
511.00	0.035279
512.00	0.033707
513.00	0.032135
514.00	0.030563
515.00	0.028991
516.00	0.027586
517.00	0.026737
518.00	0.025888
519.00	0.025038
520.00	0.024189
521.00	0.023340
522.00	0.022491
523.00	0.021642
524.00	0.020793
525.00	0.019944
526.00	0.019384
527.00	0.019123
528.00	0.018863
529.00	0.018603
530.00	0.018343
531.00	0.018083
532.00	0.017822
533.00	0.017562
534.00	0.017302
535.00	0.017042
536.00	0.016782
537.00	0.016521
538.00	0.016261
539.00	0.016446
540.00	0.016757
541.00	0.017068
542.00	0.017379
543.00	0.017690
544.00	0.018001
545.00	0.018311
546.00	0.018622
547.00	0.018933
548.00	0.019244
549.00	0.019555
550.00	0.019866
551.00	0.020177
552.00	0.020487
553.00	0.020798
554.00	0.021109
555.00	0.021383
556.00	0.021649
557.00	0.021915
558.00	0.022181
559.00	0.022447
560.00	0.022713
561.00	0.022979
562.00	0.023244
563.00	0.023510
564.00	0.023776
565.00	0.024042
566.00	0.024308
567.00	0.024513
568.00	0.024618
569.00	0.024724
570.00	0.024829
571.00	0.024935
572.00	0.025040
573.00	0.025146
574.00	0.025251
575.00	0.025356
576.00	0.025462
577.00	0.025567
578.00	0.025673
579.00	0.025778
580.00	0.025883
581.00	0.025989
582.00	0.026094
583.00	0.026627
584.00	0.027351
585.00	0.028075
586.00	0.028800
587.00	0.029524
588.00	0.030248
589.00	0.030973
590.00	0.031697
591.00	0.032421
592.00	0.033146
593.00	0.033870
594.00	0.034594
595.00	0.035319
596.00	0.036043
597.00	0.036767
598.00	0.037492
599.00	0.038216
600.00	0.038940
601.00	0.039665
602.00	0.040389
603.00	0.041131
604.00	0.041977
605.00	0.042824
606.00	0.043671
607.00	0.044517
608.00	0.045364
609.00	0.046211
610.00	0.047057
611.00	0.047904
612.00	0.048751
613.00	0.049598
614.00	0.050444
615.00	0.051291
616.00	0.052138
617.00	0.052984
618.00	0.053831
619.00	0.054678
620.00	0.055524
621.00	0.056675
622.00	0.058064
623.00	0.059454
624.00	0.060843
625.00	0.062232
626.00	0.063622
627.00	0.065011
628.00	0.066400
629.00	0.067790
630.00	0.069179
631.00	0.070568
632.00	0.071957
633.00	0.073347
634.00	0.074736
635.00	0.076125
636.00	0.077850
637.00	0.079732
638.00	0.081614
639.00	0.083496
640.00	0.085377
641.00	0.087259
642.00	0.089141
643.00	0.091023
644.00	0.092905
645.00	0.094787
646.00	0.096669
647.00	0.098551
648.00	0.10043
649.00	0.10231
650.00	0.10416
651.00	0.10598
652.00	0.10780
653.00	0.10963
654.00	0.11145
655.00	0.11327
656.00	0.11509
657.00	0.11692
658.00	0.11874
659.00	0.12056
660.00	0.12238
661.00	0.12420
662.00	0.12603
663.00	0.12786
664.00	0.12969
665.00	0.13152
666.00	0.13336
667.00	0.13519
668.00	0.13702
669.00	0.13886
670.00	0.14069
671.00	0.14252
672.00	0.14435
673.00	0.14619
674.00	0.14802
675.00	0.14985
676.00	0.15169
677.00	0.15355
678.00	0.15540
679.00	0.15725
680.00	0.15910
681.00	0.16095
682.00	0.16281
683.00	0.16466
684.00	0.16651
685.00	0.16836
686.00	0.17024
687.00	0.17231
688.00	0.17438
689.00	0.17645
690.00	0.17852
691.00	0.18059
692.00	0.18266
693.00	0.18473
694.00	0.18680
695.00	0.18990
696.00	0.19339
697.00	0.19689
698.00	0.20038
699.00	0.20388
700.00	0.20737
701.00	0.21087
702.00	0.21432
703.00	0.21750
704.00	0.22068
705.00	0.22386
706.00	0.22704
707.00	0.23022
708.00	0.23340
709.00	0.23689
710.00	0.24086
711.00	0.24484
712.00	0.24881
713.00	0.25279
714.00	0.25676
715.00	0.26050
716.00	0.26424
717.00	0.26798
718.00	0.27171
719.00	0.27511
720.00	0.27577
721.00	0.27642
722.00	0.27707
723.00	0.27773
724.00	0.27838
725.00	0.27725
726.00	0.27612
727.00	0.27500
728.00	0.27387
729.00	0.27274
730.00	0.26852
731.00	0.26367
732.00	0.25882
733.00	0.25397
734.00	0.24870
735.00	0.24207
736.00	0.23543
737.00	0.22880
738.00	0.22216
739.00	0.21536
740.00	0.20827
741.00	0.20119
742.00	0.19410
743.00	0.18702
744.00	0.17993
745.00	0.17284
746.00	0.16522
747.00	0.15725
748.00	0.14927
749.00	0.14130
750.00	0.13332
751.00	0.12535
752.00	0.11812
753.00	0.11213
754.00	0.10613
755.00	0.10014
756.00	0.094145
757.00	0.088150
758.00	0.082156
759.00	0.076935
760.00	0.072189
761.00	0.067442
762.00	0.062696
763.00	0.057949
764.00	0.053203
765.00	0.048457
766.00	0.043710
767.00	0.040862
768.00	0.038549
769.00	0.036235
770.00	0.033922
771.00	0.031609
772.00	0.029296
773.00	0.026983
774.00	0.024669
775.00	0.022356
776.00	0.020043
777.00	0.018596
778.00	0.017407
779.00	0.016219
780.00	0.015030
781.00	0.013841
782.00	0.012653
783.00	0.011464
784.00	0.010276
785.00	0.0090870
786.00	0.0079163
787.00	0.0073213
788.00	0.0067264
789.00	0.0061315
790.00	0.0055366
791.00	0.0049417
792.00	0.0043468
793.00	0.0037519
794.00	0.0031570
795.00	0.0025620
796.00	0.0021456
797.00	0.0021456
798.00	0.0021456
799.00	0.0021456
800.00	0.0021456
801.00	0.0021456
802.00	0.0021456
803.00	0.0021455
804.00	0.0021455
805.00	0.0021455
806.00	0.0021455
807.00	0.0021455
808.00	0.0021455
809.00	0.0021455
810.00	0.0021455
811.00	0.0021455
812.00	0.0021455
813.00	0.0021455
814.00	0.0021455
815.00	0.0021455
816.00	0.0021455
817.00	0.0021455
818.00	0.0021455
819.00	0.0021455
820.00	0.0021455
821.00	
822.00	
823.00	
824.00	
825.00	
826.00	
827.00	
828.00	
829.00	
830.00	
831.00	
832.00	
833.00	
834.00	
835.00	
836.00	
837.00	
838.00	
839.00	
840.00	
841.00	
842.00	
843.00	
844.00	
845.00	
846.00	
847.00	
848.00	
849.00	
850.00	
851.00	
852.00	
853.00	
854.00	
855.00	
856.00	
857.00	
858.00	
859.00	
860.00	
861.00	
862.00	
863.00	
864.00	
865.00	
866.00	
867.00	
868.00	
869.00	
870.00	
871.00	
872.00	
873.00	
874.00	
875.00	
876.00	
877.00	
878.00	
879.00	
880.00	
881.00	
882.00	
883.00	
884.00	
885.00	
886.00	
887.00	
888.00	
889.00	
890.00	
891.00	
892.00	
893.00	
894.00	
895.00	
896.00	
897.00	
898.00	
899.00	
900.00	
901.00	
902.00	
903.00	
904.00	
905.00	
906.00	
907.00	
908.00	
909.00	
910.00	
911.00	
912.00	
913.00	
914.00	
915.00	
916.00	
917.00	
918.00	
919.00	
920.00	
921.00	
922.00	
923.00	
924.00	
925.00	
926.00	
927.00	
928.00	
929.00	
930.00	
931.00	
932.00	
933.00	
934.00	
935.00	
936.00	
937.00	
938.00	
939.00	
940.00	
941.00	
942.00	
943.00	
944.00	
945.00	
946.00	
947.00	
948.00	
949.00	
950.00	
951.00	
952.00	
953.00	
954.00	
955.00	
956.00	
957.00	
958.00	
959.00	
960.00	
961.00	
962.00	
963.00	
964.00	
965.00	
966.00	
967.00	
968.00	
969.00	
970.00	
971.00	
972.00	
973.00	
974.00	
975.00	
976.00	
977.00	
978.00	
979.00	
980.00	
981.00	
982.00	
983.00	
984.00	
985.00	
986.00	
987.00	
988.00	
989.00	
990.00	
991.00	
992.00	
993.00	
994.00	
995.00	
996.00	
997.00	
998.00	
999.00	
1000.0	
1001.0	
1002.0	
1003.0	
1004.0	
1005.0	
1006.0	
1007.0	
1008.0	
1009.0	
1010.0	
1011.0	
1012.0	
1013.0	
1014.0	
1015.0	
1016.0	
1017.0	
1018.0	
1019.0	
1020.0	
1021.0	
1022.0	
1023.0	
1024.0	
1025.0	
1026.0	
1027.0	
1028.0	
1029.0	
1030.0	
1031.0	
1032.0	
1033.0	
1034.0	
1035.0	
1036.0	
1037.0	
1038.0	
1039.0	
1040.0	
1041.0	
1042.0	
1043.0	
1044.0	
1045.0	
1046.0	
1047.0	
1048.0	
1049.0	
1050.0	
1051.0	
1052.0	
1053.0	
1054.0	
1055.0	
1056.0	
1057.0	
1058.0	
1059.0	
1060.0	
1061.0	
1062.0	
1063.0	
1064.0	
1065.0	
1066.0	
1067.0	
1068.0	
1069.0	
1070.0	
1071.0	
1072.0	
1073.0	
1074.0	
1075.0	
1076.0	
1077.0	
1078.0	
1079.0	
1080.0	
1081.0	
1082.0	
1083.0	
1084.0	
1085.0	
1086.0	
1087.0	
1088.0	
1089.0	
1090.0	
1091.0	
1092.0	
1093.0	
1094.0	
1095.0	
1096.0	
1097.0	
1098.0	
1099.0	
1100.0	
1101.0	
1102.0	
1103.0	
1104.0	
1105.0	
1106.0	
1107.0	
1108.0	
1109.0	
1110.0	
1111.0	
1112.0	
1113.0	
1114.0	
1115.0	
1116.0	
1117.0	
1118.0	
1119.0	
1120.0	
1121.0	
1122.0	
1123.0	
1124.0	
1125.0	
1126.0	
1127.0	
1128.0	
1129.0	
1130.0	
1131.0	
1132.0	
1133.0	
1134.0	
1135.0	
1136.0	
1137.0	
1138.0	
1139.0	
1140.0	
1141.0	
1142.0	
1143.0	
1144.0	
1145.0	
1146.0	
1147.0	
1148.0	
1149.0	
1150.0	
1151.0	
1152.0	
1153.0	
1154.0	
1155.0	
1156.0	
1157.0	
1158.0	
1159.0	
1160.0	
1161.0	
1162.0	
1163.0	
1164.0	
1165.0	
1166.0	
1167.0	
1168.0	
1169.0	
1170.0	
1171.0	
1172.0	
1173.0	
1174.0	
1175.0	
1176.0	
1177.0	
1178.0	
1179.0	
1180.0	
1181.0	
1182.0	
1183.0	
1184.0	
1185.0	
1186.0	
1187.0	
1188.0	
1189.0	
1190.0	
1191.0	
1192.0	
1193.0	
1194.0	
1195.0	
1196.0	
1197.0	
1198.0	
1199.0	
1200.0	
