Wavelength (nm)	"196, JOC 2014_2591, 9"
200.00	
201.00	
202.00	
203.00	
204.00	
205.00	
206.00	
207.00	
208.00	
209.00	
210.00	
211.00	
212.00	
213.00	
214.00	
215.00	
216.00	
217.00	
218.00	
219.00	
220.00	
221.00	
222.00	
223.00	
224.00	
225.00	
226.00	
227.00	
228.00	
229.00	
230.00	
231.00	
232.00	
233.00	
234.00	
235.00	
236.00	
237.00	
238.00	
239.00	
240.00	
241.00	
242.00	
243.00	
244.00	
245.00	
246.00	
247.00	
248.00	
249.00	
250.00	
251.00	
252.00	
253.00	
254.00	
255.00	
256.00	
257.00	
258.00	
259.00	
260.00	
261.00	
262.00	
263.00	
264.00	
265.00	
266.00	
267.00	
268.00	
269.00	
270.00	
271.00	
272.00	
273.00	
274.00	
275.00	
276.00	
277.00	
278.00	
279.00	
280.00	
281.00	
282.00	
283.00	
284.00	
285.00	
286.00	
287.00	
288.00	
289.00	
290.00	
291.00	
292.00	
293.00	
294.00	
295.00	
296.00	
297.00	
298.00	
299.00	
300.00	0.49174
301.00	0.49881
302.00	0.50587
303.00	0.51294
304.00	0.52009
305.00	0.53013
306.00	0.54017
307.00	0.55021
308.00	0.56044
309.00	0.57072
310.00	0.58100
311.00	0.59129
312.00	0.60157
313.00	0.61319
314.00	0.62502
315.00	0.63685
316.00	0.64868
317.00	0.66052
318.00	0.67207
319.00	0.68361
320.00	0.69515
321.00	0.70669
322.00	0.71823
323.00	0.72838
324.00	0.73684
325.00	0.74529
326.00	0.75374
327.00	0.76219
328.00	0.77039
329.00	0.77704
330.00	0.78369
331.00	0.79034
332.00	0.79700
333.00	0.80219
334.00	0.80656
335.00	0.81093
336.00	0.81530
337.00	0.81944
338.00	0.82224
339.00	0.82503
340.00	0.82783
341.00	0.82982
342.00	0.83089
343.00	0.83197
344.00	0.83305
345.00	0.83191
346.00	0.83076
347.00	0.82962
348.00	0.82639
349.00	0.82238
350.00	0.81838
351.00	0.81311
352.00	0.80635
353.00	0.79960
354.00	0.79284
355.00	0.78548
356.00	0.77517
357.00	0.76487
358.00	0.75456
359.00	0.74425
360.00	0.73357
361.00	0.72186
362.00	0.71015
363.00	0.69844
364.00	0.68673
365.00	0.67502
366.00	0.66386
367.00	0.65288
368.00	0.64189
369.00	0.63091
370.00	0.61993
371.00	0.60894
372.00	0.60000
373.00	0.59225
374.00	0.58450
375.00	0.57676
376.00	0.56901
377.00	0.56236
378.00	0.55805
379.00	0.55374
380.00	0.54943
381.00	0.54739
382.00	0.54575
383.00	0.54412
384.00	0.54536
385.00	0.54663
386.00	0.54790
387.00	0.55001
388.00	0.55398
389.00	0.55795
390.00	0.56262
391.00	0.56938
392.00	0.57613
393.00	0.58289
394.00	0.58965
395.00	0.60069
396.00	0.61192
397.00	0.62314
398.00	0.63436
399.00	0.64734
400.00	0.66238
401.00	0.67742
402.00	0.69246
403.00	0.70750
404.00	0.72254
405.00	0.73758
406.00	0.75262
407.00	0.76766
408.00	0.78270
409.00	0.79774
410.00	0.81278
411.00	0.82782
412.00	0.84185
413.00	0.85516
414.00	0.86848
415.00	0.88180
416.00	0.89512
417.00	0.90843
418.00	0.92164
419.00	0.93321
420.00	0.94478
421.00	0.95635
422.00	0.96744
423.00	0.97633
424.00	0.98522
425.00	0.99247
426.00	0.99624
427.00	1.0000
428.00	0.99825
429.00	0.99651
430.00	0.99476
431.00	0.98934
432.00	0.98365
433.00	0.97145
434.00	0.95817
435.00	0.94247
436.00	0.92676
437.00	0.91106
438.00	0.88820
439.00	0.86378
440.00	0.83935
441.00	0.80738
442.00	0.77437
443.00	0.73703
444.00	0.69755
445.00	0.65806
446.00	0.62368
447.00	0.58945
448.00	0.55522
449.00	0.51782
450.00	0.47959
451.00	0.44199
452.00	0.41091
453.00	0.37984
454.00	0.34876
455.00	0.32167
456.00	0.29665
457.00	0.27162
458.00	0.24821
459.00	0.23019
460.00	0.21218
461.00	0.19416
462.00	0.17932
463.00	0.16460
464.00	0.15034
465.00	0.14009
466.00	0.12985
467.00	0.11961
468.00	0.11137
469.00	0.10430
470.00	0.097239
471.00	0.090174
472.00	0.083524
473.00	0.079650
474.00	0.075776
475.00	0.071901
476.00	0.068027
477.00	0.064152
478.00	0.061890
479.00	0.059982
480.00	0.058074
481.00	0.056165
482.00	0.054257
483.00	0.052349
484.00	0.050440
485.00	0.048891
486.00	0.047746
487.00	0.046601
488.00	0.045456
489.00	0.044311
490.00	0.043166
491.00	0.042021
492.00	0.040951
493.00	0.040430
494.00	0.039910
495.00	0.039390
496.00	0.038870
497.00	0.038350
498.00	0.037830
499.00	0.037310
500.00	0.036790
501.00	0.036362
502.00	0.036553
503.00	0.036743
504.00	0.036934
505.00	0.037125
506.00	0.037316
507.00	0.037507
508.00	0.037698
509.00	0.037888
510.00	0.038079
511.00	0.038319
512.00	0.038658
513.00	0.038997
514.00	0.039336
515.00	0.039676
516.00	0.040015
517.00	0.040354
518.00	0.040693
519.00	0.041032
520.00	0.041371
521.00	0.041711
522.00	0.042147
523.00	0.042809
524.00	0.043471
525.00	0.044134
526.00	0.044796
527.00	0.045458
528.00	0.046121
529.00	0.046783
530.00	0.047445
531.00	0.048108
532.00	0.048770
533.00	0.049432
534.00	0.050095
535.00	0.050757
536.00	0.051419
537.00	0.052082
538.00	0.053115
539.00	0.054260
540.00	0.055404
541.00	0.056549
542.00	0.057693
543.00	0.058838
544.00	0.059982
545.00	0.061127
546.00	0.062271
547.00	0.063416
548.00	0.064560
549.00	0.065705
550.00	0.066849
551.00	0.067994
552.00	0.069138
553.00	0.070283
554.00	0.071428
555.00	0.072572
556.00	0.073717
557.00	0.074861
558.00	0.076006
559.00	0.077150
560.00	0.078811
561.00	0.080682
562.00	0.082554
563.00	0.084426
564.00	0.086297
565.00	0.088169
566.00	0.090041
567.00	0.091912
568.00	0.093784
569.00	0.095655
570.00	0.097527
571.00	0.099399
572.00	0.10127
573.00	0.10314
574.00	0.10501
575.00	0.10689
576.00	0.10876
577.00	0.11063
578.00	0.11250
579.00	0.11437
580.00	0.11624
581.00	0.11811
582.00	0.11999
583.00	0.12186
584.00	0.12373
585.00	0.12560
586.00	0.12747
587.00	0.12934
588.00	0.13156
589.00	0.13390
590.00	0.13624
591.00	0.13857
592.00	0.14091
593.00	0.14325
594.00	0.14559
595.00	0.14793
596.00	0.15027
597.00	0.15261
598.00	0.15495
599.00	0.15729
600.00	0.15963
601.00	0.16196
602.00	0.16430
603.00	0.16664
604.00	0.16898
605.00	0.17132
606.00	0.17366
607.00	0.17590
608.00	0.17814
609.00	0.18037
610.00	0.18261
611.00	0.18485
612.00	0.18708
613.00	0.18932
614.00	0.19156
615.00	0.19379
616.00	0.19603
617.00	0.19827
618.00	0.20050
619.00	0.20274
620.00	0.20498
621.00	0.20721
622.00	0.20945
623.00	0.21168
624.00	0.21392
625.00	0.21580
626.00	0.21766
627.00	0.21952
628.00	0.22138
629.00	0.22325
630.00	0.22511
631.00	0.22697
632.00	0.22883
633.00	0.23070
634.00	0.23256
635.00	0.23442
636.00	0.23628
637.00	0.23794
638.00	0.23958
639.00	0.24122
640.00	0.24286
641.00	0.24450
642.00	0.24613
643.00	0.24731
644.00	0.24848
645.00	0.24966
646.00	0.25083
647.00	0.25201
648.00	0.25318
649.00	0.25433
650.00	0.25542
651.00	0.25651
652.00	0.25761
653.00	0.25870
654.00	0.25980
655.00	0.26089
656.00	0.26199
657.00	0.26293
658.00	0.26375
659.00	0.26457
660.00	0.26539
661.00	0.26621
662.00	0.26704
663.00	0.26786
664.00	0.26835
665.00	0.26881
666.00	0.26927
667.00	0.26973
668.00	0.27019
669.00	0.27000
670.00	0.26981
671.00	0.26961
672.00	0.26942
673.00	0.26923
674.00	0.26863
675.00	0.26788
676.00	0.26713
677.00	0.26638
678.00	0.26563
679.00	0.26387
680.00	0.26204
681.00	0.26021
682.00	0.25838
683.00	0.25655
684.00	0.25422
685.00	0.25179
686.00	0.24936
687.00	0.24694
688.00	0.24451
689.00	0.24162
690.00	0.23799
691.00	0.23435
692.00	0.23072
693.00	0.22708
694.00	0.22345
695.00	0.21950
696.00	0.21532
697.00	0.21114
698.00	0.20697
699.00	0.20279
700.00	0.19861
701.00	0.19444
702.00	0.19026
703.00	0.18571
704.00	0.18113
705.00	0.17655
706.00	0.17197
707.00	0.16739
708.00	0.16281
709.00	0.15824
710.00	0.15381
711.00	0.14976
712.00	0.14572
713.00	0.14167
714.00	0.13763
715.00	0.13358
716.00	0.12954
717.00	0.12549
718.00	0.12183
719.00	0.11819
720.00	0.11455
721.00	0.11091
722.00	0.10727
723.00	0.10363
724.00	0.099984
725.00	0.096653
726.00	0.093672
727.00	0.090692
728.00	0.087711
729.00	0.084730
730.00	0.081749
731.00	0.078769
732.00	0.075899
733.00	0.073656
734.00	0.071414
735.00	0.069171
736.00	0.066929
737.00	0.064686
738.00	0.062444
739.00	0.060202
740.00	0.057959
741.00	0.056100
742.00	0.054332
743.00	0.052563
744.00	0.050795
745.00	0.049026
746.00	0.047257
747.00	0.045489
748.00	0.043892
749.00	0.042659
750.00	0.041426
751.00	0.040193
752.00	0.038960
753.00	0.037728
754.00	0.036495
755.00	0.035262
756.00	0.034029
757.00	0.032870
758.00	0.031792
759.00	0.030715
760.00	0.029638
761.00	0.028560
762.00	0.027483
763.00	0.026406
764.00	0.025329
765.00	0.024251
766.00	0.023435
767.00	0.022689
768.00	0.021942
769.00	0.021195
770.00	0.020449
771.00	0.019702
772.00	0.018956
773.00	0.018209
774.00	0.017548
775.00	0.016995
776.00	0.016442
777.00	0.015890
778.00	0.015337
779.00	0.014784
780.00	0.014232
781.00	0.013679
782.00	0.013126
783.00	0.012574
784.00	0.012170
785.00	0.011879
786.00	0.011589
787.00	0.011298
788.00	0.011007
789.00	0.010716
790.00	0.010426
791.00	0.010135
792.00	0.0098441
793.00	0.0095533
794.00	0.0092625
795.00	0.0090114
796.00	0.0087673
797.00	0.0085232
798.00	0.0082792
799.00	0.0080351
800.00	0.0077910
801.00	0.0075469
802.00	0.0073028
803.00	0.0070587
804.00	0.0068146
805.00	0.0065705
806.00	0.0063265
807.00	0.0060938
808.00	0.0059920
809.00	0.0058903
810.00	0.0057886
811.00	0.0056868
812.00	0.0055851
813.00	0.0054834
814.00	0.0053817
815.00	0.0052799
816.00	0.0051782
817.00	0.0050765
818.00	0.0049747
819.00	0.0048730
820.00	0.0047713
821.00	0.0046695
822.00	0.0045678
823.00	0.0044801
824.00	0.0043969
825.00	0.0043136
826.00	0.0042304
827.00	0.0041471
828.00	0.0040639
829.00	0.0039806
830.00	0.0038974
831.00	0.0038141
832.00	0.0037308
833.00	0.0036476
834.00	0.0035643
835.00	0.0034811
836.00	0.0033978
837.00	0.0033146
838.00	0.0032313
839.00	0.0031481
840.00	0.0030648
841.00	0.0029820
842.00	0.0029105
843.00	0.0028390
844.00	0.0027675
845.00	0.0026959
846.00	0.0026244
847.00	0.0025529
848.00	0.0024814
849.00	0.0024099
850.00	0.0023383
851.00	0.0022668
852.00	0.0021953
853.00	0.0021238
854.00	0.0020522
855.00	0.0019807
856.00	0.0019092
857.00	0.0018377
858.00	0.0017661
859.00	0.0016946
860.00	0.0016231
861.00	0.0015516
862.00	0.0014800
863.00	0.0014264
864.00	0.0014264
865.00	0.0014264
866.00	0.0014264
867.00	0.0014264
868.00	0.0014264
869.00	0.0014264
870.00	0.0014264
871.00	0.0014264
872.00	0.0014264
873.00	0.0014264
874.00	0.0014264
875.00	0.0014264
876.00	0.0014264
877.00	0.0014264
878.00	0.0014264
879.00	0.0014264
880.00	0.0014264
881.00	0.0014264
882.00	0.0014264
883.00	0.0014264
884.00	0.0014264
885.00	0.0014264
886.00	0.0014264
887.00	0.0014264
888.00	0.0014264
889.00	0.0014264
890.00	0.0014264
891.00	0.0014264
892.00	0.0014264
893.00	0.0014264
894.00	0.0014264
895.00	0.0014264
896.00	0.0014264
897.00	0.0014264
898.00	0.0014264
899.00	0.0014264
900.00	0.0014264
901.00	
902.00	
903.00	
904.00	
905.00	
906.00	
907.00	
908.00	
909.00	
910.00	
911.00	
912.00	
913.00	
914.00	
915.00	
916.00	
917.00	
918.00	
919.00	
920.00	
921.00	
922.00	
923.00	
924.00	
925.00	
926.00	
927.00	
928.00	
929.00	
930.00	
931.00	
932.00	
933.00	
934.00	
935.00	
936.00	
937.00	
938.00	
939.00	
940.00	
941.00	
942.00	
943.00	
944.00	
945.00	
946.00	
947.00	
948.00	
949.00	
950.00	
951.00	
952.00	
953.00	
954.00	
955.00	
956.00	
957.00	
958.00	
959.00	
960.00	
961.00	
962.00	
963.00	
964.00	
965.00	
966.00	
967.00	
968.00	
969.00	
970.00	
971.00	
972.00	
973.00	
974.00	
975.00	
976.00	
977.00	
978.00	
979.00	
980.00	
981.00	
982.00	
983.00	
984.00	
985.00	
986.00	
987.00	
988.00	
989.00	
990.00	
991.00	
992.00	
993.00	
994.00	
995.00	
996.00	
997.00	
998.00	
999.00	
1000.0	
1001.0	
1002.0	
1003.0	
1004.0	
1005.0	
1006.0	
1007.0	
1008.0	
1009.0	
1010.0	
1011.0	
1012.0	
1013.0	
1014.0	
1015.0	
1016.0	
1017.0	
1018.0	
1019.0	
1020.0	
1021.0	
1022.0	
1023.0	
1024.0	
1025.0	
1026.0	
1027.0	
1028.0	
1029.0	
1030.0	
1031.0	
1032.0	
1033.0	
1034.0	
1035.0	
1036.0	
1037.0	
1038.0	
1039.0	
1040.0	
1041.0	
1042.0	
1043.0	
1044.0	
1045.0	
1046.0	
1047.0	
1048.0	
1049.0	
1050.0	
1051.0	
1052.0	
1053.0	
1054.0	
1055.0	
1056.0	
1057.0	
1058.0	
1059.0	
1060.0	
1061.0	
1062.0	
1063.0	
1064.0	
1065.0	
1066.0	
1067.0	
1068.0	
1069.0	
1070.0	
1071.0	
1072.0	
1073.0	
1074.0	
1075.0	
1076.0	
1077.0	
1078.0	
1079.0	
1080.0	
1081.0	
1082.0	
1083.0	
1084.0	
1085.0	
1086.0	
1087.0	
1088.0	
1089.0	
1090.0	
1091.0	
1092.0	
1093.0	
1094.0	
1095.0	
1096.0	
1097.0	
1098.0	
1099.0	
1100.0	
1101.0	
1102.0	
1103.0	
1104.0	
1105.0	
1106.0	
1107.0	
1108.0	
1109.0	
1110.0	
1111.0	
1112.0	
1113.0	
1114.0	
1115.0	
1116.0	
1117.0	
1118.0	
1119.0	
1120.0	
1121.0	
1122.0	
1123.0	
1124.0	
1125.0	
1126.0	
1127.0	
1128.0	
1129.0	
1130.0	
1131.0	
1132.0	
1133.0	
1134.0	
1135.0	
1136.0	
1137.0	
1138.0	
1139.0	
1140.0	
1141.0	
1142.0	
1143.0	
1144.0	
1145.0	
1146.0	
1147.0	
1148.0	
1149.0	
1150.0	
1151.0	
1152.0	
1153.0	
1154.0	
1155.0	
1156.0	
1157.0	
1158.0	
1159.0	
1160.0	
1161.0	
1162.0	
1163.0	
1164.0	
1165.0	
1166.0	
1167.0	
1168.0	
1169.0	
1170.0	
1171.0	
1172.0	
1173.0	
1174.0	
1175.0	
1176.0	
1177.0	
1178.0	
1179.0	
1180.0	
1181.0	
1182.0	
1183.0	
1184.0	
1185.0	
1186.0	
1187.0	
1188.0	
1189.0	
1190.0	
1191.0	
1192.0	
1193.0	
1194.0	
1195.0	
1196.0	
1197.0	
1198.0	
1199.0	
1200.0	
