Wavelength (nm)	J Agric Food Chem 2017_2651, Pa-YCC-31 abs [Z]
210.00	0.99520
211.00	0.96171
212.00	0.92822
213.00	0.89473
214.00	0.84438
215.00	0.78412
216.00	0.72617
217.00	0.67947
218.00	0.63277
219.00	0.59248
220.00	0.55480
221.00	0.51703
222.00	0.47358
223.00	0.46365
224.00	0.45416
225.00	0.45150
226.00	0.44884
227.00	0.45169
228.00	0.45470
229.00	0.46216
230.00	0.47389
231.00	0.48562
232.00	0.49893
233.00	0.51432
234.00	0.52971
235.00	0.54488
236.00	0.55834
237.00	0.57180
238.00	0.58526
239.00	0.59858
240.00	0.60956
241.00	0.62054
242.00	0.63099
243.00	0.64049
244.00	0.64992
245.00	0.65604
246.00	0.66159
247.00	0.65644
248.00	0.65130
249.00	0.64360
250.00	0.63117
251.00	0.61875
252.00	0.60524
253.00	0.59160
254.00	0.57659
255.00	0.56147
256.00	0.55022
257.00	0.53913
258.00	0.52885
259.00	0.51906
260.00	0.51029
261.00	0.50683
262.00	0.50338
263.00	0.50099
264.00	0.50260
265.00	0.50422
266.00	0.50583
267.00	0.51050
268.00	0.51608
269.00	0.52166
270.00	0.52681
271.00	0.53143
272.00	0.53605
273.00	0.54068
274.00	0.54581
275.00	0.55123
276.00	0.55665
277.00	0.56207
278.00	0.56581
279.00	0.56886
280.00	0.57192
281.00	0.57497
282.00	0.57840
283.00	0.58379
284.00	0.58917
285.00	0.59456
286.00	0.59995
287.00	0.60762
288.00	0.61566
289.00	0.62371
290.00	0.63259
291.00	0.64354
292.00	0.65448
293.00	0.66542
294.00	0.67869
295.00	0.69448
296.00	0.71028
297.00	0.72607
298.00	0.74309
299.00	0.76112
300.00	0.77915
301.00	0.79718
302.00	0.81550
303.00	0.83412
304.00	0.85274
305.00	0.87137
306.00	0.89011
307.00	0.90896
308.00	0.92780
309.00	0.94294
310.00	0.95570
311.00	0.96847
312.00	0.97726
313.00	0.98492
314.00	0.99259
315.00	0.99118
316.00	0.98977
317.00	0.98594
318.00	0.97798
319.00	0.96984
320.00	0.95719
321.00	0.94455
322.00	0.92902
323.00	0.90767
324.00	0.88632
325.00	0.86287
326.00	0.83601
327.00	0.80915
328.00	0.77986
329.00	0.74516
330.00	0.71046
331.00	0.67504
332.00	0.63738
333.00	0.59972
334.00	0.56434
335.00	0.52960
336.00	0.49485
337.00	0.46261
338.00	0.43218
339.00	0.40175
340.00	0.37241
341.00	0.34981
342.00	0.32720
343.00	0.30460
344.00	0.28997
345.00	0.27710
346.00	0.26422
347.00	0.25712
348.00	0.25087
349.00	0.24462
350.00	0.23921
351.00	0.23565
352.00	0.23209
353.00	0.23550
354.00	0.23912
355.00	0.24275
356.00	0.24819
357.00	0.25461
358.00	0.26103
359.00	0.26821
360.00	0.27694
361.00	0.28567
362.00	0.29439
363.00	0.30312
364.00	0.31345
365.00	0.32460
366.00	0.33575
367.00	0.34690
368.00	0.35805
369.00	0.36924
370.00	0.38404
371.00	0.39884
372.00	0.41364
373.00	0.42845
374.00	0.44325
375.00	0.45805
376.00	0.47314
377.00	0.48912
378.00	0.50510
379.00	0.52108
380.00	0.53706
381.00	0.55304
382.00	0.56919
383.00	0.58596
384.00	0.60272
385.00	0.61949
386.00	0.63626
387.00	0.65303
388.00	0.66980
389.00	0.68739
390.00	0.70556
391.00	0.72373
392.00	0.74190
393.00	0.76007
394.00	0.77824
395.00	0.79461
396.00	0.81084
397.00	0.82707
398.00	0.84330
399.00	0.85953
400.00	0.87496
401.00	0.88832
402.00	0.90168
403.00	0.91504
404.00	0.92839
405.00	0.94175
406.00	0.94988
407.00	0.95722
408.00	0.96457
409.00	0.97191
410.00	0.97925
411.00	0.98202
412.00	0.98454
413.00	0.98706
414.00	0.98958
415.00	0.99210
416.00	0.99473
417.00	0.99737
418.00	1.0000
419.00	0.99771
420.00	0.99541
421.00	0.99312
422.00	0.98727
423.00	0.98036
424.00	0.97345
425.00	0.96185
426.00	0.94921
427.00	0.93658
428.00	0.92154
429.00	0.90567
430.00	0.88980
431.00	0.87275
432.00	0.85034
433.00	0.82793
434.00	0.80553
435.00	0.78312
436.00	0.75440
437.00	0.72482
438.00	0.69524
439.00	0.66651
440.00	0.63845
441.00	0.61038
442.00	0.58231
443.00	0.55454
444.00	0.52707
445.00	0.49960
446.00	0.47203
447.00	0.44291
448.00	0.41378
449.00	0.38466
450.00	0.35713
451.00	0.33230
452.00	0.30748
453.00	0.28266
454.00	0.25855
455.00	0.23747
456.00	0.21639
457.00	0.19531
458.00	0.17801
459.00	0.16294
460.00	0.14787
461.00	0.13280
462.00	0.11962
463.00	0.10876
464.00	0.097902
465.00	0.087041
466.00	0.077012
467.00	0.069231
468.00	0.061450
469.00	0.053669
470.00	0.047188
471.00	0.042232
472.00	0.037277
473.00	0.032321
474.00	0.027707
475.00	0.024882
476.00	0.022058
477.00	0.019233
478.00	0.016409
479.00	0.013871
480.00	0.012242
481.00	0.010613
482.00	0.0089844
483.00	0.0073555
484.00	0.0063662
485.00	0.0056644
486.00	0.0049625
487.00	0.0042606
488.00	0.0035588
489.00	0.0030745
490.00	0.0029032
491.00	0.0027320
492.00	0.0025607
493.00	0.0023895
494.00	0.0022182
495.00	0.0020646
496.00	0.0019109
497.00	0.0017573
498.00	0.0016037
499.00	0.0014500
500.00	0.0012964
501.00	0.0012918
502.00	0.0012918
503.00	0.0012918
504.00	0.0012918
505.00	0.0012918
506.00	0.0012918
507.00	0.0012918
508.00	0.0012918
509.00	0.0012918
510.00	0.0012918
511.00	0.0012918
512.00	0.0012918
513.00	0.0012918
514.00	0.0012918
515.00	0.0012918
516.00	0.0012918
517.00	0.0012918
518.00	0.0012918
519.00	0.0012918
520.00	0.0012918
521.00	0.0012918
522.00	0.0012918
523.00	0.0012918
524.00	0.0012918
525.00	0.0012918
526.00	0.0012918
527.00	0.0012918
528.00	0.0012918
529.00	0.0012918
530.00	0.0012918
531.00	0.0012918
532.00	0.0012918
533.00	0.0012918
534.00	0.0012918
535.00	0.0012918
536.00	0.0012918
537.00	0.0012918
538.00	0.0012918
539.00	0.0012918
540.00	0.0012918
541.00	0.0012918
542.00	0.0012918
543.00	0.0012918
544.00	0.0012918
545.00	0.0012918
546.00	0.0012918
547.00	0.0012918
548.00	0.0012918
549.00	0.0012918
550.00	0.0012918
551.00	0.0012918
552.00	0.0012918
553.00	0.0012918
554.00	0.0012918
555.00	0.0012918
556.00	0.0012918
557.00	0.0012918
558.00	0.0012918
559.00	0.0012918
560.00	0.0012918
561.00	0.0012918
562.00	0.0012918
563.00	0.0012918
564.00	0.0012918
565.00	0.0012918
566.00	0.0012918
567.00	0.0012918
568.00	0.0012918
569.00	0.0012918
570.00	0.0012918
571.00	0.0012918
572.00	0.0012918
573.00	0.0012918
574.00	0.0012918
575.00	0.0012918
576.00	0.0012918
577.00	0.0012918
578.00	0.0012918
579.00	0.0012918
580.00	0.0012918
581.00	0.0012918
582.00	0.0012918
583.00	0.0012918
584.00	0.0012918
585.00	0.0012918
586.00	0.0012918
587.00	0.0012918
588.00	0.0012918
589.00	0.0012918
590.00	0.0012918
591.00	0.0012918
592.00	0.0012918
593.00	0.0012918
594.00	0.0012918
595.00	0.0012918
596.00	0.0012918
597.00	0.0012918
598.00	0.0012918
599.00	0.0012918
600.00	0.0012918
