Wavelength (nm)	"70, Inorg Chem 1999_5379, 9"
200.00	
201.00	
202.00	
203.00	
204.00	
205.00	
206.00	
207.00	
208.00	
209.00	
210.00	
211.00	
212.00	
213.00	
214.00	
215.00	
216.00	
217.00	
218.00	
219.00	
220.00	
221.00	
222.00	
223.00	
224.00	
225.00	
226.00	
227.00	
228.00	
229.00	
230.00	
231.00	
232.00	
233.00	
234.00	
235.00	
236.00	
237.00	
238.00	
239.00	
240.00	
241.00	
242.00	
243.00	
244.00	
245.00	
246.00	
247.00	
248.00	
249.00	
250.00	
251.00	
252.00	
253.00	
254.00	
255.00	
256.00	
257.00	
258.00	
259.00	
260.00	
261.00	
262.00	
263.00	
264.00	
265.00	
266.00	
267.00	
268.00	
269.00	
270.00	
271.00	
272.00	
273.00	
274.00	
275.00	
276.00	
277.00	
278.00	
279.00	
280.00	
281.00	
282.00	
283.00	
284.00	
285.00	
286.00	
287.00	
288.00	
289.00	
290.00	
291.00	
292.00	
293.00	
294.00	
295.00	
296.00	
297.00	
298.00	
299.00	
300.00	
301.00	
302.00	
303.00	
304.00	
305.00	
306.00	
307.00	
308.00	
309.00	
310.00	
311.00	
312.00	
313.00	
314.00	
315.00	
316.00	
317.00	
318.00	
319.00	
320.00	
321.00	
322.00	
323.00	
324.00	
325.00	
326.00	
327.00	
328.00	
329.00	
330.00	
331.00	
332.00	
333.00	
334.00	
335.00	
336.00	
337.00	
338.00	
339.00	
340.00	
341.00	
342.00	
343.00	
344.00	
345.00	
346.00	
347.00	
348.00	
349.00	
350.00	0.68840
351.00	0.68959
352.00	0.69079
353.00	0.69225
354.00	0.69380
355.00	0.69535
356.00	0.69691
357.00	0.69846
358.00	0.70002
359.00	0.70274
360.00	0.70649
361.00	0.71025
362.00	0.71400
363.00	0.71775
364.00	0.72322
365.00	0.72970
366.00	0.73618
367.00	0.74266
368.00	0.74811
369.00	0.75313
370.00	0.75816
371.00	0.76318
372.00	0.76821
373.00	0.77190
374.00	0.77416
375.00	0.77641
376.00	0.77867
377.00	0.78092
378.00	0.78318
379.00	0.78543
380.00	0.78769
381.00	0.78983
382.00	0.79173
383.00	0.79363
384.00	0.79553
385.00	0.79742
386.00	0.79932
387.00	0.80122
388.00	0.80312
389.00	0.80494
390.00	0.80666
391.00	0.80838
392.00	0.81010
393.00	0.81183
394.00	0.81355
395.00	0.81527
396.00	0.81699
397.00	0.81872
398.00	0.82095
399.00	0.82423
400.00	0.82751
401.00	0.83078
402.00	0.83406
403.00	0.83734
404.00	0.84372
405.00	0.85390
406.00	0.86408
407.00	0.87418
408.00	0.88389
409.00	0.89360
410.00	0.90331
411.00	0.91302
412.00	0.92220
413.00	0.93136
414.00	0.94051
415.00	0.94966
416.00	0.95882
417.00	0.96736
418.00	0.97496
419.00	0.98256
420.00	0.99015
421.00	0.99479
422.00	0.99609
423.00	0.99740
424.00	0.99870
425.00	1.0000
426.00	0.99965
427.00	0.99930
428.00	0.99896
429.00	0.99861
430.00	0.99826
431.00	0.99791
432.00	0.99734
433.00	0.99638
434.00	0.99541
435.00	0.99445
436.00	0.99348
437.00	0.99251
438.00	0.99155
439.00	0.99058
440.00	0.98909
441.00	0.98538
442.00	0.98166
443.00	0.97794
444.00	0.97423
445.00	0.96815
446.00	0.96196
447.00	0.95576
448.00	0.94956
449.00	0.94337
450.00	0.93101
451.00	0.91626
452.00	0.90151
453.00	0.88677
454.00	0.87202
455.00	0.85727
456.00	0.83325
457.00	0.80745
458.00	0.78166
459.00	0.75587
460.00	0.73008
461.00	0.70376
462.00	0.67711
463.00	0.65046
464.00	0.62381
465.00	0.59582
466.00	0.56553
467.00	0.53525
468.00	0.50497
469.00	0.47469
470.00	0.45464
471.00	0.43715
472.00	0.41965
473.00	0.40216
474.00	0.38467
475.00	0.36718
476.00	0.35112
477.00	0.33605
478.00	0.32099
479.00	0.30592
480.00	0.29085
481.00	0.27579
482.00	0.26072
483.00	0.24728
484.00	0.23443
485.00	0.22159
486.00	0.20875
487.00	0.19681
488.00	0.18962
489.00	0.18242
490.00	0.17523
491.00	0.16804
492.00	0.16084
493.00	0.15365
494.00	0.14804
495.00	0.14252
496.00	0.13699
497.00	0.13147
498.00	0.12594
499.00	0.12146
500.00	0.11854
501.00	0.11561
502.00	0.11269
503.00	0.10977
504.00	0.10684
505.00	0.10392
506.00	0.10116
507.00	0.099015
508.00	0.096870
509.00	0.094725
510.00	0.092580
511.00	0.090435
512.00	0.088290
513.00	0.086145
514.00	0.084000
515.00	0.081855
516.00	0.080149
517.00	0.079076
518.00	0.078003
519.00	0.076930
520.00	0.075858
521.00	0.074785
522.00	0.073712
523.00	0.072639
524.00	0.071566
525.00	0.070493
526.00	0.069420
527.00	0.068347
528.00	0.067474
529.00	0.066605
530.00	0.065735
531.00	0.064866
532.00	0.063996
533.00	0.063127
534.00	0.062258
535.00	0.061388
536.00	0.060519
537.00	0.059649
538.00	0.058780
539.00	0.057911
540.00	0.057299
541.00	0.056719
542.00	0.056139
543.00	0.055559
544.00	0.054979
545.00	0.054399
546.00	0.053818
547.00	0.053238
548.00	0.052658
549.00	0.052078
550.00	0.051498
551.00	0.050918
552.00	0.050418
553.00	0.049937
554.00	0.049455
555.00	0.048974
556.00	0.048493
557.00	0.048012
558.00	0.047530
559.00	0.047049
560.00	0.046568
561.00	0.046086
562.00	0.045605
563.00	0.045124
564.00	0.044655
565.00	0.044357
566.00	0.044059
567.00	0.043761
568.00	0.043463
569.00	0.043165
570.00	0.042867
571.00	0.042569
572.00	0.042271
573.00	0.041974
574.00	0.041676
575.00	0.041378
576.00	0.041084
577.00	0.040798
578.00	0.040513
579.00	0.040228
580.00	0.039942
581.00	0.039657
582.00	0.039372
583.00	0.039087
584.00	0.038801
585.00	0.038516
586.00	0.038231
587.00	0.037946
588.00	0.037660
589.00	0.037375
590.00	0.037090
591.00	0.036804
592.00	0.036977
593.00	0.037168
594.00	0.037360
595.00	0.037552
596.00	0.037743
597.00	0.037935
598.00	0.038126
599.00	0.038318
600.00	0.038509
601.00	0.038701
602.00	0.038892
603.00	0.039084
604.00	0.039275
605.00	0.039513
606.00	0.039896
607.00	0.040279
608.00	0.040662
609.00	0.041045
610.00	0.041428
611.00	0.041811
612.00	0.042194
613.00	0.042577
614.00	0.042960
615.00	0.043343
616.00	0.043726
617.00	0.044109
618.00	0.044492
619.00	0.044962
620.00	0.045512
621.00	0.046062
622.00	0.046612
623.00	0.047162
624.00	0.047712
625.00	0.048263
626.00	0.048813
627.00	0.049363
628.00	0.049913
629.00	0.050463
630.00	0.051013
631.00	0.051563
632.00	0.052730
633.00	0.054070
634.00	0.055411
635.00	0.056752
636.00	0.058092
637.00	0.059433
638.00	0.060773
639.00	0.062114
640.00	0.063455
641.00	0.064795
642.00	0.066902
643.00	0.069025
644.00	0.071148
645.00	0.073271
646.00	0.075394
647.00	0.077517
648.00	0.079639
649.00	0.081629
650.00	0.082797
651.00	0.083965
652.00	0.085133
653.00	0.086301
654.00	0.087469
655.00	0.088223
656.00	0.088744
657.00	0.089265
658.00	0.089787
659.00	0.090308
660.00	0.090829
661.00	0.091351
662.00	0.091872
663.00	0.092393
664.00	0.092915
665.00	0.092998
666.00	0.092998
667.00	0.092998
668.00	0.092998
669.00	0.092998
670.00	0.092998
671.00	0.092998
672.00	0.092998
673.00	0.092998
674.00	0.092998
675.00	0.092998
676.00	0.093136
677.00	0.093281
678.00	0.093427
679.00	0.093572
680.00	0.093717
681.00	0.093863
682.00	0.094008
683.00	0.094153
684.00	0.094299
685.00	0.094444
686.00	0.094589
687.00	0.095383
688.00	0.096248
689.00	0.097113
690.00	0.097979
691.00	0.098844
692.00	0.099709
693.00	0.10057
694.00	0.10144
695.00	0.10263
696.00	0.10401
697.00	0.10539
698.00	0.10678
699.00	0.10816
700.00	0.10954
701.00	0.11092
702.00	0.11230
703.00	0.11369
704.00	0.11522
705.00	0.11682
706.00	0.11843
707.00	0.12004
708.00	0.12165
709.00	0.12326
710.00	0.12487
711.00	0.12647
712.00	0.12807
713.00	0.12967
714.00	0.13126
715.00	0.13285
716.00	0.13444
717.00	0.13603
718.00	0.13762
719.00	0.13921
720.00	0.14080
721.00	0.14257
722.00	0.14438
723.00	0.14619
724.00	0.14800
725.00	0.14981
726.00	0.15163
727.00	0.15344
728.00	0.15525
729.00	0.15706
730.00	0.15888
731.00	0.16092
732.00	0.16307
733.00	0.16521
734.00	0.16735
735.00	0.16950
736.00	0.17164
737.00	0.17379
738.00	0.17593
739.00	0.17793
740.00	0.17980
741.00	0.18167
742.00	0.18354
743.00	0.18541
744.00	0.18728
745.00	0.18915
746.00	0.19102
747.00	0.19289
748.00	0.19499
749.00	0.19727
750.00	0.19956
751.00	0.20184
752.00	0.20412
753.00	0.20641
754.00	0.20869
755.00	0.21083
756.00	0.21237
757.00	0.21391
758.00	0.21545
759.00	0.21700
760.00	0.21854
761.00	0.22008
762.00	0.22162
763.00	0.22316
764.00	0.22470
765.00	0.22625
766.00	0.22771
767.00	0.22898
768.00	0.23026
769.00	0.23154
770.00	0.23282
771.00	0.23409
772.00	0.23537
773.00	0.23665
774.00	0.23792
775.00	0.23920
776.00	0.24048
777.00	0.24176
778.00	0.24293
779.00	0.24410
780.00	0.24526
781.00	0.24642
782.00	0.24759
783.00	0.24875
784.00	0.24992
785.00	0.25108
786.00	0.25224
787.00	0.25341
788.00	0.25457
789.00	0.25573
790.00	0.25690
791.00	0.25806
792.00	0.25936
793.00	0.26083
794.00	0.26231
795.00	0.26378
796.00	0.26525
797.00	0.26672
798.00	0.26819
799.00	0.26967
800.00	0.27114
801.00	0.27261
802.00	0.27408
803.00	0.27555
804.00	0.27703
805.00	0.27850
806.00	0.28046
807.00	0.28280
808.00	0.28513
809.00	0.28747
810.00	0.28980
811.00	0.29214
812.00	0.29447
813.00	0.29681
814.00	0.29909
815.00	0.30102
816.00	0.30295
817.00	0.30487
818.00	0.30680
819.00	0.30873
820.00	0.31066
821.00	0.31258
822.00	0.31451
823.00	0.31631
824.00	0.31791
825.00	0.31952
826.00	0.32113
827.00	0.32274
828.00	0.32435
829.00	0.32596
830.00	0.32757
831.00	0.32918
832.00	0.33079
833.00	0.33239
834.00	0.33379
835.00	0.33500
836.00	0.33621
837.00	0.33742
838.00	0.33864
839.00	0.33985
840.00	0.34106
841.00	0.34227
842.00	0.34344
843.00	0.34424
844.00	0.34504
845.00	0.34583
846.00	0.34663
847.00	0.34608
848.00	0.34554
849.00	0.34499
850.00	0.34445
851.00	0.34390
852.00	0.34335
853.00	0.34218
854.00	0.34101
855.00	0.33985
856.00	0.33868
857.00	0.33752
858.00	0.33635
859.00	0.33462
860.00	0.33272
861.00	0.33082
862.00	0.32892
863.00	0.32701
864.00	0.32511
865.00	0.32321
866.00	0.32130
867.00	0.31913
868.00	0.31636
869.00	0.31360
870.00	0.31084
871.00	0.30808
872.00	0.30532
873.00	0.30255
874.00	0.29979
875.00	0.29703
876.00	0.29423
877.00	0.29100
878.00	0.28777
879.00	0.28454
880.00	0.28131
881.00	0.27808
882.00	0.27485
883.00	0.27162
884.00	0.26839
885.00	0.26516
886.00	0.26193
887.00	0.25861
888.00	0.25518
889.00	0.25176
890.00	0.24833
891.00	0.24491
892.00	0.24148
893.00	0.23806
894.00	0.23463
895.00	0.23120
896.00	0.22778
897.00	0.22432
898.00	0.22084
899.00	0.21736
900.00	0.21388
901.00	0.21040
902.00	0.20692
903.00	0.20344
904.00	0.19996
905.00	0.19648
906.00	0.19300
907.00	0.18957
908.00	0.18619
909.00	0.18280
910.00	0.17941
911.00	0.17602
912.00	0.17263
913.00	0.16924
914.00	0.16585
915.00	0.16246
916.00	0.15908
917.00	0.15581
918.00	0.15295
919.00	0.15009
920.00	0.14722
921.00	0.14436
922.00	0.14150
923.00	0.13863
924.00	0.13577
925.00	0.13291
926.00	0.13004
927.00	0.12718
928.00	0.12432
929.00	0.12156
930.00	0.11907
931.00	0.11659
932.00	0.11411
933.00	0.11163
934.00	0.10915
935.00	0.10667
936.00	0.10419
937.00	0.10171
938.00	0.099231
939.00	0.096751
940.00	0.094341
941.00	0.092053
942.00	0.089764
943.00	0.087476
944.00	0.085188
945.00	0.082899
946.00	0.080611
947.00	0.078322
948.00	0.076034
949.00	0.073808
950.00	0.072041
951.00	0.070274
952.00	0.068507
953.00	0.066740
954.00	0.064973
955.00	0.063206
956.00	0.061439
957.00	0.059672
958.00	0.057905
959.00	0.056138
960.00	0.054371
961.00	0.052634
962.00	0.051081
963.00	0.049528
964.00	0.047975
965.00	0.046422
966.00	0.044869
967.00	0.043316
968.00	0.041763
969.00	0.040210
970.00	0.038657
971.00	0.037104
972.00	0.036003
973.00	0.035016
974.00	0.034028
975.00	0.033041
976.00	0.032054
977.00	0.031066
978.00	0.030079
979.00	0.029092
980.00	0.028104
981.00	0.027117
982.00	0.026172
983.00	0.025278
984.00	0.024384
985.00	0.023490
986.00	0.022596
987.00	0.021702
988.00	0.020808
989.00	0.019915
990.00	0.019021
991.00	0.018127
992.00	0.017317
993.00	0.016553
994.00	0.015789
995.00	0.015024
996.00	0.014260
997.00	0.013496
998.00	0.012731
999.00	0.011967
1000.0	0.011203
1001.0	0.010465
1002.0	0.0099612
1003.0	0.0094578
1004.0	0.0089544
1005.0	0.0084510
1006.0	0.0079475
1007.0	0.0074441
1008.0	0.0069407
1009.0	0.0064373
1010.0	0.0060458
1011.0	0.0058224
1012.0	0.0055989
1013.0	0.0053754
1014.0	0.0051520
1015.0	0.0049285
1016.0	0.0047051
1017.0	0.0044816
1018.0	0.0042581
1019.0	0.0040347
1020.0	0.0038410
1021.0	0.0036672
1022.0	0.0034935
1023.0	0.0033197
1024.0	0.0031459
1025.0	0.0029721
1026.0	0.0027983
1027.0	0.0026245
1028.0	0.0024594
1029.0	0.0023291
1030.0	0.0021987
1031.0	0.0020684
1032.0	0.0019380
1033.0	0.0018077
1034.0	0.0016773
1035.0	0.0015470
1036.0	0.0014166
1037.0	0.0012863
1038.0	0.0011559
1039.0	0.0010256
1040.0	0.0010256
1041.0	0.0010256
1042.0	0.0010256
1043.0	0.0010256
1044.0	0.0010256
1045.0	0.0010256
1046.0	0.0010256
1047.0	0.0010256
1048.0	0.0010256
1049.0	0.0010256
1050.0	0.0010256
1051.0	
1052.0	
1053.0	
1054.0	
1055.0	
1056.0	
1057.0	
1058.0	
1059.0	
1060.0	
1061.0	
1062.0	
1063.0	
1064.0	
1065.0	
1066.0	
1067.0	
1068.0	
1069.0	
1070.0	
1071.0	
1072.0	
1073.0	
1074.0	
1075.0	
1076.0	
1077.0	
1078.0	
1079.0	
1080.0	
1081.0	
1082.0	
1083.0	
1084.0	
1085.0	
1086.0	
1087.0	
1088.0	
1089.0	
1090.0	
1091.0	
1092.0	
1093.0	
1094.0	
1095.0	
1096.0	
1097.0	
1098.0	
1099.0	
1100.0	
1101.0	
1102.0	
1103.0	
1104.0	
1105.0	
1106.0	
1107.0	
1108.0	
1109.0	
1110.0	
1111.0	
1112.0	
1113.0	
1114.0	
1115.0	
1116.0	
1117.0	
1118.0	
1119.0	
1120.0	
1121.0	
1122.0	
1123.0	
1124.0	
1125.0	
1126.0	
1127.0	
1128.0	
1129.0	
1130.0	
1131.0	
1132.0	
1133.0	
1134.0	
1135.0	
1136.0	
1137.0	
1138.0	
1139.0	
1140.0	
1141.0	
1142.0	
1143.0	
1144.0	
1145.0	
1146.0	
1147.0	
1148.0	
1149.0	
1150.0	
1151.0	
1152.0	
1153.0	
1154.0	
1155.0	
1156.0	
1157.0	
1158.0	
1159.0	
1160.0	
1161.0	
1162.0	
1163.0	
1164.0	
1165.0	
1166.0	
1167.0	
1168.0	
1169.0	
1170.0	
1171.0	
1172.0	
1173.0	
1174.0	
1175.0	
1176.0	
1177.0	
1178.0	
1179.0	
1180.0	
1181.0	
1182.0	
1183.0	
1184.0	
1185.0	
1186.0	
1187.0	
1188.0	
1189.0	
1190.0	
1191.0	
1192.0	
1193.0	
1194.0	
1195.0	
1196.0	
1197.0	
1198.0	
1199.0	
1200.0	
