Wavelength (nm)	"76, M 1993_881, 10"
200.00	
201.00	
202.00	
203.00	
204.00	
205.00	
206.00	
207.00	
208.00	
209.00	
210.00	
211.00	
212.00	
213.00	
214.00	
215.00	
216.00	
217.00	
218.00	
219.00	
220.00	
221.00	
222.00	
223.00	
224.00	
225.00	
226.00	
227.00	
228.00	
229.00	
230.00	
231.00	
232.00	
233.00	
234.00	
235.00	
236.00	
237.00	
238.00	
239.00	
240.00	
241.00	
242.00	
243.00	
244.00	
245.00	
246.00	
247.00	
248.00	
249.00	
250.00	
251.00	
252.00	
253.00	
254.00	
255.00	
256.00	
257.00	
258.00	
259.00	
260.00	0.57520
261.00	0.61030
262.00	0.64530
263.00	0.68028
264.00	0.71489
265.00	0.74749
266.00	0.78009
267.00	0.81270
268.00	0.84212
269.00	0.87130
270.00	0.89972
271.00	0.92799
272.00	0.95627
273.00	0.97462
274.00	0.99122
275.00	0.99415
276.00	0.99707
277.00	1.0000
278.00	0.99613
279.00	0.99226
280.00	0.97675
281.00	0.96022
282.00	0.93894
283.00	0.91675
284.00	0.89456
285.00	0.86428
286.00	0.82883
287.00	0.78504
288.00	0.72179
289.00	0.66532
290.00	0.61716
291.00	0.57346
292.00	0.53737
293.00	0.50244
294.00	0.48574
295.00	0.46905
296.00	0.45235
297.00	0.44188
298.00	0.43555
299.00	0.42923
300.00	0.42341
301.00	0.42097
302.00	0.41852
303.00	0.41607
304.00	0.41362
305.00	0.41126
306.00	0.41056
307.00	0.40985
308.00	0.40915
309.00	0.40844
310.00	0.40878
311.00	0.40923
312.00	0.40968
313.00	0.41014
314.00	0.41059
315.00	0.41104
316.00	0.41215
317.00	0.41413
318.00	0.41610
319.00	0.41808
320.00	0.42006
321.00	0.42203
322.00	0.42844
323.00	0.43545
324.00	0.44246
325.00	0.44947
326.00	0.45748
327.00	0.46647
328.00	0.47547
329.00	0.48446
330.00	0.49418
331.00	0.50976
332.00	0.52533
333.00	0.54091
334.00	0.55608
335.00	0.57119
336.00	0.58631
337.00	0.59852
338.00	0.61030
339.00	0.62208
340.00	0.63385
341.00	0.64073
342.00	0.64561
343.00	0.65049
344.00	0.65286
345.00	0.65420
346.00	0.65555
347.00	0.65399
348.00	0.65244
349.00	0.65088
350.00	0.64594
351.00	0.63963
352.00	0.63331
353.00	0.62469
354.00	0.61349
355.00	0.60229
356.00	0.59107
357.00	0.57788
358.00	0.56470
359.00	0.55151
360.00	0.53833
361.00	0.52370
362.00	0.50882
363.00	0.49395
364.00	0.47907
365.00	0.46478
366.00	0.45247
367.00	0.44017
368.00	0.42786
369.00	0.41591
370.00	0.40865
371.00	0.40139
372.00	0.39413
373.00	0.38686
374.00	0.37960
375.00	0.37356
376.00	0.36861
377.00	0.36366
378.00	0.35870
379.00	0.35622
380.00	0.35421
381.00	0.35220
382.00	0.35018
383.00	0.34817
384.00	0.34735
385.00	0.34692
386.00	0.34648
387.00	0.34605
388.00	0.34562
389.00	0.34579
390.00	0.34626
391.00	0.34673
392.00	0.34720
393.00	0.34767
394.00	0.34814
395.00	0.34922
396.00	0.35107
397.00	0.35293
398.00	0.35479
399.00	0.35664
400.00	0.35850
401.00	0.36036
402.00	0.36367
403.00	0.36749
404.00	0.37131
405.00	0.37512
406.00	0.37894
407.00	0.38276
408.00	0.38668
409.00	0.39289
410.00	0.39910
411.00	0.40531
412.00	0.41152
413.00	0.41774
414.00	0.42478
415.00	0.43408
416.00	0.44339
417.00	0.45269
418.00	0.46263
419.00	0.47379
420.00	0.48496
421.00	0.49612
422.00	0.50744
423.00	0.51899
424.00	0.53054
425.00	0.54096
426.00	0.54624
427.00	0.55153
428.00	0.55681
429.00	0.55965
430.00	0.56153
431.00	0.56341
432.00	0.56102
433.00	0.55863
434.00	0.55623
435.00	0.55069
436.00	0.54494
437.00	0.53920
438.00	0.53255
439.00	0.52318
440.00	0.51382
441.00	0.50445
442.00	0.48167
443.00	0.44916
444.00	0.41817
445.00	0.39198
446.00	0.36578
447.00	0.33959
448.00	0.31314
449.00	0.28370
450.00	0.25427
451.00	0.22484
452.00	0.20155
453.00	0.17936
454.00	0.15716
455.00	0.13602
456.00	0.12041
457.00	0.10479
458.00	0.089177
459.00	0.077177
460.00	0.069421
461.00	0.061665
462.00	0.053908
463.00	0.046152
464.00	0.039890
465.00	0.033913
466.00	0.027936
467.00	0.021959
468.00	0.018915
469.00	0.017253
470.00	0.015590
471.00	0.013928
472.00	0.012265
473.00	0.010685
474.00	0.0096124
475.00	0.0085400
476.00	
477.00	
478.00	
479.00	
480.00	
481.00	
482.00	
483.00	
484.00	
485.00	
486.00	
487.00	
488.00	
489.00	
490.00	
491.00	
492.00	
493.00	
494.00	
495.00	
496.00	
497.00	
498.00	
499.00	
500.00	
501.00	
502.00	
503.00	
504.00	
505.00	
506.00	
507.00	
508.00	
509.00	
510.00	
511.00	
512.00	
513.00	
514.00	
515.00	
516.00	
517.00	
518.00	
519.00	
520.00	
521.00	
522.00	
523.00	
524.00	
525.00	
526.00	
527.00	
528.00	
529.00	
530.00	
531.00	
532.00	
533.00	
534.00	
535.00	
536.00	
537.00	
538.00	
539.00	
540.00	
541.00	
542.00	
543.00	
544.00	
545.00	
546.00	
547.00	
548.00	
549.00	
550.00	
551.00	
552.00	
553.00	
554.00	
555.00	
556.00	
557.00	
558.00	
559.00	
560.00	
561.00	
562.00	
563.00	
564.00	
565.00	
566.00	
567.00	
568.00	
569.00	
570.00	
571.00	
572.00	
573.00	
574.00	
575.00	
576.00	
577.00	
578.00	
579.00	
580.00	
581.00	
582.00	
583.00	
584.00	
585.00	
586.00	
587.00	
588.00	
589.00	
590.00	
591.00	
592.00	
593.00	
594.00	
595.00	
596.00	
597.00	
598.00	
599.00	
600.00	
601.00	
602.00	
603.00	
604.00	
605.00	
606.00	
607.00	
608.00	
609.00	
610.00	
611.00	
612.00	
613.00	
614.00	
615.00	
616.00	
617.00	
618.00	
619.00	
620.00	
621.00	
622.00	
623.00	
624.00	
625.00	
626.00	
627.00	
628.00	
629.00	
630.00	
631.00	
632.00	
633.00	
634.00	
635.00	
636.00	
637.00	
638.00	
639.00	
640.00	
641.00	
642.00	
643.00	
644.00	
645.00	
646.00	
647.00	
648.00	
649.00	
650.00	
651.00	
652.00	
653.00	
654.00	
655.00	
656.00	
657.00	
658.00	
659.00	
660.00	
661.00	
662.00	
663.00	
664.00	
665.00	
666.00	
667.00	
668.00	
669.00	
670.00	
671.00	
672.00	
673.00	
674.00	
675.00	
676.00	
677.00	
678.00	
679.00	
680.00	
681.00	
682.00	
683.00	
684.00	
685.00	
686.00	
687.00	
688.00	
689.00	
690.00	
691.00	
692.00	
693.00	
694.00	
695.00	
696.00	
697.00	
698.00	
699.00	
700.00	
701.00	
702.00	
703.00	
704.00	
705.00	
706.00	
707.00	
708.00	
709.00	
710.00	
711.00	
712.00	
713.00	
714.00	
715.00	
716.00	
717.00	
718.00	
719.00	
720.00	
721.00	
722.00	
723.00	
724.00	
725.00	
726.00	
727.00	
728.00	
729.00	
730.00	
731.00	
732.00	
733.00	
734.00	
735.00	
736.00	
737.00	
738.00	
739.00	
740.00	
741.00	
742.00	
743.00	
744.00	
745.00	
746.00	
747.00	
748.00	
749.00	
750.00	
751.00	
752.00	
753.00	
754.00	
755.00	
756.00	
757.00	
758.00	
759.00	
760.00	
761.00	
762.00	
763.00	
764.00	
765.00	
766.00	
767.00	
768.00	
769.00	
770.00	
771.00	
772.00	
773.00	
774.00	
775.00	
776.00	
777.00	
778.00	
779.00	
780.00	
781.00	
782.00	
783.00	
784.00	
785.00	
786.00	
787.00	
788.00	
789.00	
790.00	
791.00	
792.00	
793.00	
794.00	
795.00	
796.00	
797.00	
798.00	
799.00	
800.00	
801.00	
802.00	
803.00	
804.00	
805.00	
806.00	
807.00	
808.00	
809.00	
810.00	
811.00	
812.00	
813.00	
814.00	
815.00	
816.00	
817.00	
818.00	
819.00	
820.00	
821.00	
822.00	
823.00	
824.00	
825.00	
826.00	
827.00	
828.00	
829.00	
830.00	
831.00	
832.00	
833.00	
834.00	
835.00	
836.00	
837.00	
838.00	
839.00	
840.00	
841.00	
842.00	
843.00	
844.00	
845.00	
846.00	
847.00	
848.00	
849.00	
850.00	
851.00	
852.00	
853.00	
854.00	
855.00	
856.00	
857.00	
858.00	
859.00	
860.00	
861.00	
862.00	
863.00	
864.00	
865.00	
866.00	
867.00	
868.00	
869.00	
870.00	
871.00	
872.00	
873.00	
874.00	
875.00	
876.00	
877.00	
878.00	
879.00	
880.00	
881.00	
882.00	
883.00	
884.00	
885.00	
886.00	
887.00	
888.00	
889.00	
890.00	
891.00	
892.00	
893.00	
894.00	
895.00	
896.00	
897.00	
898.00	
899.00	
900.00	
901.00	
902.00	
903.00	
904.00	
905.00	
906.00	
907.00	
908.00	
909.00	
910.00	
911.00	
912.00	
913.00	
914.00	
915.00	
916.00	
917.00	
918.00	
919.00	
920.00	
921.00	
922.00	
923.00	
924.00	
925.00	
926.00	
927.00	
928.00	
929.00	
930.00	
931.00	
932.00	
933.00	
934.00	
935.00	
936.00	
937.00	
938.00	
939.00	
940.00	
941.00	
942.00	
943.00	
944.00	
945.00	
946.00	
947.00	
948.00	
949.00	
950.00	
951.00	
952.00	
953.00	
954.00	
955.00	
956.00	
957.00	
958.00	
959.00	
960.00	
961.00	
962.00	
963.00	
964.00	
965.00	
966.00	
967.00	
968.00	
969.00	
970.00	
971.00	
972.00	
973.00	
974.00	
975.00	
976.00	
977.00	
978.00	
979.00	
980.00	
981.00	
982.00	
983.00	
984.00	
985.00	
986.00	
987.00	
988.00	
989.00	
990.00	
991.00	
992.00	
993.00	
994.00	
995.00	
996.00	
997.00	
998.00	
999.00	
1000.0	
1001.0	
1002.0	
1003.0	
1004.0	
1005.0	
1006.0	
1007.0	
1008.0	
1009.0	
1010.0	
1011.0	
1012.0	
1013.0	
1014.0	
1015.0	
1016.0	
1017.0	
1018.0	
1019.0	
1020.0	
1021.0	
1022.0	
1023.0	
1024.0	
1025.0	
1026.0	
1027.0	
1028.0	
1029.0	
1030.0	
1031.0	
1032.0	
1033.0	
1034.0	
1035.0	
1036.0	
1037.0	
1038.0	
1039.0	
1040.0	
1041.0	
1042.0	
1043.0	
1044.0	
1045.0	
1046.0	
1047.0	
1048.0	
1049.0	
1050.0	
1051.0	
1052.0	
1053.0	
1054.0	
1055.0	
1056.0	
1057.0	
1058.0	
1059.0	
1060.0	
1061.0	
1062.0	
1063.0	
1064.0	
1065.0	
1066.0	
1067.0	
1068.0	
1069.0	
1070.0	
1071.0	
1072.0	
1073.0	
1074.0	
1075.0	
1076.0	
1077.0	
1078.0	
1079.0	
1080.0	
1081.0	
1082.0	
1083.0	
1084.0	
1085.0	
1086.0	
1087.0	
1088.0	
1089.0	
1090.0	
1091.0	
1092.0	
1093.0	
1094.0	
1095.0	
1096.0	
1097.0	
1098.0	
1099.0	
1100.0	
1101.0	
1102.0	
1103.0	
1104.0	
1105.0	
1106.0	
1107.0	
1108.0	
1109.0	
1110.0	
1111.0	
1112.0	
1113.0	
1114.0	
1115.0	
1116.0	
1117.0	
1118.0	
1119.0	
1120.0	
1121.0	
1122.0	
1123.0	
1124.0	
1125.0	
1126.0	
1127.0	
1128.0	
1129.0	
1130.0	
1131.0	
1132.0	
1133.0	
1134.0	
1135.0	
1136.0	
1137.0	
1138.0	
1139.0	
1140.0	
1141.0	
1142.0	
1143.0	
1144.0	
1145.0	
1146.0	
1147.0	
1148.0	
1149.0	
1150.0	
1151.0	
1152.0	
1153.0	
1154.0	
1155.0	
1156.0	
1157.0	
1158.0	
1159.0	
1160.0	
1161.0	
1162.0	
1163.0	
1164.0	
1165.0	
1166.0	
1167.0	
1168.0	
1169.0	
1170.0	
1171.0	
1172.0	
1173.0	
1174.0	
1175.0	
1176.0	
1177.0	
1178.0	
1179.0	
1180.0	
1181.0	
1182.0	
1183.0	
1184.0	
1185.0	
1186.0	
1187.0	
1188.0	
1189.0	
1190.0	
1191.0	
1192.0	
1193.0	
1194.0	
1195.0	
1196.0	
1197.0	
1198.0	
1199.0	
1200.0	
